#Digilent WaveForms Oscilloscope Acquisition,,,
#Device Name: Discovery2,,,
#Serial Number: SN:210321A41F6B,,,
#Date Time: 2024-01-30 16:41:02.182,,,
#Sample rate: 4000Hz,,,
#Samples: 8000,,,
#Trigger: Source: Channel 1 Type: Edge Condition: Rising Level: 1.2 V Hyst.: Auto HoldOff: 0 s,,,
#Channel 1: Range: 1 V/div Offset: 50 mV Attenuation: 1 X Sample Mode: Average,,,
#Channel 2: Range: 1 V/div Offset: 0 V Attenuation: 1 X Sample Mode: Average,,,
#Math 1: Function: C2 * ( 0.0010067),,,
,,,
#Wavegen Channel 1: Running,,,
#Mode: Simple,,,
#Type: RampUp,,,
#Frequency: 1 Hz,,,
#Period: 1 s,,,
#Amplitude: 5 V,,,
#Offset: 0 V,,,
#Symmetry: 100 %,,,
#Phase: 0 °,,,
,,,
Time (s),Channel 1 (V),Channel 2 (V),Math 1 (A)
0.00275,-2.636487758,-2.414633953,-0.000518533
0.003,-2.632836777,-2.410966863,-0.000518533
0.00325,-2.632836777,-2.407299774,-0.000514841
0.0035,-2.632836777,-2.407299774,-0.000514841
0.00375,-2.632836777,-2.403632685,-0.000511149
0.004,-2.632836777,-2.399965596,-0.000511149
0.00425,-2.632836777,-2.399965596,-0.000511149
0.0045,-2.632836777,-2.399965596,-0.000507458
0.00475,-2.632836777,-2.396298506,-0.000507458
0.005,-2.629185795,-2.392631417,-0.000503766
0.00525,-2.629185795,-2.388964328,-0.000503766
0.0055,-2.629185795,-2.388964328,-0.000500074
0.00575,-2.629185795,-2.388964328,-0.000500074
0.006,-2.629185795,-2.385297238,-0.000496383
0.00625,-2.629185795,-2.381630149,-0.000496383
0.0065,-2.629185795,-2.381630149,-0.000496383
0.00675,-2.629185795,-2.37796306,-0.000496383
0.007,-2.625534814,-2.37429597,-0.000492691
0.00725,-2.629185795,-2.370628881,-0.000492691
0.0075,-2.629185795,-2.370628881,-0.000488999
0.00775,-2.625534814,-2.366961792,-0.000488999
0.008,-2.625534814,-2.366961792,-0.000485308
0.00825,-2.625534814,-2.363294702,-0.000485308
0.0085,-2.625534814,-2.363294702,-0.000481616
0.00875,-2.625534814,-2.359627613,-0.000481616
0.009,-2.625534814,-2.355960524,-0.000481616
0.00925,-2.625534814,-2.355960524,-0.000477924
0.0095,-2.625534814,-2.352293434,-0.000477924
0.00975,-2.625534814,-2.348626345,-0.000474233
0.01,-2.621883832,-2.348626345,-0.000474233
0.01025,-2.621883832,-2.344959256,-0.000470541
0.0105,-2.621883832,-2.341292166,-0.000470541
0.01075,-2.621883832,-2.341292166,-0.00046685
0.011,-2.621883832,-2.341292166,-0.00046685
0.01125,-2.621883832,-2.337625077,-0.00046685
0.0115,-2.621883832,-2.333957988,-0.000463158
0.01175,-2.621883832,-2.333957988,-0.000463158
0.012,-2.621883832,-2.330290898,-0.000459466
0.01225,-2.621883832,-2.330290898,-0.000459466
0.0125,-2.621883832,-2.330290898,-0.000459466
0.01275,-2.621883832,-2.326623809,-0.000455775
0.013,-2.618232851,-2.326623809,-0.000452083
0.01325,-2.618232851,-2.32295672,-0.000452083
0.0135,-2.618232851,-2.31928963,-0.000452083
0.01375,-2.618232851,-2.31928963,-0.000448391
0.014,-2.618232851,-2.315622541,-0.000448391
0.01425,-2.618232851,-2.311955452,-0.000448391
0.0145,-2.618232851,-2.311955452,-0.0004447
0.01475,-2.618232851,-2.308288362,-0.000441008
0.015,-2.618232851,-2.308288362,-0.000441008
0.01525,-2.618232851,-2.304621273,-0.000441008
0.0155,-2.618232851,-2.304621273,-0.000437316
0.01575,-2.618232851,-2.300954184,-0.000437316
0.016,-2.618232851,-2.297287094,-0.000433625
0.01625,-2.614581869,-2.297287094,-0.000433625
0.0165,-2.614581869,-2.293620005,-0.000433625
0.01675,-2.614581869,-2.289952916,-0.000429933
0.017,-2.614581869,-2.289952916,-0.000429933
0.01725,-2.614581869,-2.286285826,-0.000429933
0.0175,-2.614581869,-2.286285826,-0.000426241
0.01775,-2.614581869,-2.282618737,-0.000426241
0.018,-2.614581869,-2.278951648,-0.00042255
0.01825,-2.614581869,-2.278951648,-0.00042255
0.0185,-2.614581869,-2.275284558,-0.000418858
0.01875,-2.614581869,-2.275284558,-0.000415166
0.019,-2.610930887,-2.271617469,-0.000415166
0.01925,-2.614581869,-2.271617469,-0.000415166
0.0195,-2.614581869,-2.26795038,-0.000415166
0.01975,-2.610930887,-2.264283291,-0.000411475
0.02,-2.610930887,-2.260616201,-0.000411475
0.02025,-2.610930887,-2.260616201,-0.000407783
0.0205,-2.610930887,-2.260616201,-0.000407783
0.02075,-2.610930887,-2.256949112,-0.000404091
0.021,-2.610930887,-2.253282023,-0.000404091
0.02125,-2.610930887,-2.253282023,-0.0004004
0.0215,-2.607279906,-2.249614933,-0.0004004
0.02175,-2.607279906,-2.245947844,-0.0004004
0.022,-2.607279906,-2.242280755,-0.000396708
0.02225,-2.607279906,-2.242280755,-0.000396708
0.0225,-2.607279906,-2.242280755,-0.000396708
0.02275,-2.607279906,-2.238613665,-0.000393016
0.023,-2.607279906,-2.234946576,-0.000393016
0.02325,-2.607279906,-2.234946576,-0.000389325
0.0235,-2.607279906,-2.231279487,-0.000389325
0.02375,-2.607279906,-2.231279487,-0.000385633
0.024,-2.603628924,-2.227612397,-0.000385633
0.02425,-2.603628924,-2.223945308,-0.000385633
0.0245,-2.603628924,-2.223945308,-0.000381941
0.02475,-2.603628924,-2.220278219,-0.000381941
0.025,-2.603628924,-2.216611129,-0.00037825
0.02525,-2.603628924,-2.216611129,-0.00037825
0.0255,-2.603628924,-2.21294404,-0.000374558
0.02575,-2.603628924,-2.21294404,-0.000374558
0.026,-2.603628924,-2.209276951,-0.000374558
0.02625,-2.603628924,-2.209276951,-0.000370866
0.0265,-2.603628924,-2.205609861,-0.000370866
0.02675,-2.603628924,-2.205609861,-0.000370866
0.027,-2.603628924,-2.201942772,-0.000367175
0.02725,-2.599977943,-2.201942772,-0.000367175
0.0275,-2.599977943,-2.198275683,-0.000363483
0.02775,-2.599977943,-2.198275683,-0.000363483
0.028,-2.599977943,-2.194608593,-0.000359791
0.02825,-2.599977943,-2.190941504,-0.000359791
0.0285,-2.599977943,-2.190941504,-0.000359791
0.02875,-2.599977943,-2.190941504,-0.0003561
0.029,-2.599977943,-2.187274415,-0.0003561
0.02925,-2.599977943,-2.187274415,-0.000352408
0.0295,-2.596326961,-2.183607325,-0.000352408
0.02975,-2.599977943,-2.179940236,-0.000352408
0.03,-2.596326961,-2.176273147,-0.000348716
0.03025,-2.596326961,-2.176273147,-0.000348716
0.0305,-2.596326961,-2.172606057,-0.000348716
0.03075,-2.596326961,-2.172606057,-0.000345025
0.031,-2.596326961,-2.168938968,-0.000345025
0.03125,-2.596326961,-2.165271879,-0.000345025
0.0315,-2.596326961,-2.165271879,-0.000345025
0.03175,-2.596326961,-2.161604789,-0.000341333
0.032,-2.596326961,-2.1579377,-0.000341333
0.03225,-2.596326961,-2.1579377,-0.000337641
0.0325,-2.59267598,-2.154270611,-0.000337641
0.03275,-2.596326961,-2.154270611,-0.000337641
0.033,-2.59267598,-2.150603521,-0.00033395
0.03325,-2.59267598,-2.150603521,-0.00033395
0.0335,-2.59267598,-2.146936432,-0.00033395
0.03375,-2.59267598,-2.143269343,-0.000330258
0.034,-2.59267598,-2.143269343,-0.000330258
0.03425,-2.59267598,-2.139602253,-0.000330258
0.0345,-2.59267598,-2.135935164,-0.000326566
0.03475,-2.59267598,-2.135935164,-0.000326566
0.035,-2.59267598,-2.135935164,-0.000322875
0.03525,-2.59267598,-2.132268075,-0.000322875
0.0355,-2.59267598,-2.128600985,-0.000322875
0.03575,-2.59267598,-2.128600985,-0.000322875
0.036,-2.589024998,-2.124933896,-0.000319183
0.03625,-2.589024998,-2.121266807,-0.000319183
0.0365,-2.589024998,-2.117599718,-0.000319183
0.03675,-2.589024998,-2.117599718,-0.000315491
0.037,-2.589024998,-2.113932628,-0.000315491
0.03725,-2.589024998,-2.113932628,-0.0003118
0.0375,-2.585374017,-2.110265539,-0.0003118
0.03775,-2.589024998,-2.110265539,-0.0003118
0.038,-2.585374017,-2.10659845,-0.000308108
0.03825,-2.585374017,-2.10293136,-0.000308108
0.0385,-2.585374017,-2.10293136,-0.000308108
0.03875,-2.585374017,-2.099264271,-0.000304417
0.039,-2.585374017,-2.099264271,-0.000304417
0.03925,-2.585374017,-2.095597182,-0.000304417
0.0395,-2.585374017,-2.091930092,-0.000300725
0.03975,-2.585374017,-2.091930092,-0.000300725
0.04,-2.585374017,-2.088263003,-0.000297033
0.04025,-2.585374017,-2.088263003,-0.000297033
0.0405,-2.585374017,-2.084595914,-0.000293342
0.04075,-2.581723035,-2.080928824,-0.000293342
0.041,-2.585374017,-2.080928824,-0.000293342
0.04125,-2.581723035,-2.077261735,-0.000293342
0.0415,-2.581723035,-2.073594646,-0.00028965
0.04175,-2.581723035,-2.073594646,-0.00028965
0.042,-2.581723035,-2.069927556,-0.000285958
0.04225,-2.581723035,-2.069927556,-0.000285958
0.0425,-2.581723035,-2.066260467,-0.000285958
0.04275,-2.581723035,-2.062593378,-0.000282267
0.043,-2.581723035,-2.062593378,-0.000282267
0.04325,-2.581723035,-2.058926288,-0.000278575
0.0435,-2.578072053,-2.055259199,-0.000278575
0.04375,-2.578072053,-2.055259199,-0.000274883
0.044,-2.578072053,-2.055259199,-0.000274883
0.04425,-2.578072053,-2.05159211,-0.000274883
0.0445,-2.578072053,-2.04792502,-0.000271192
0.04475,-2.578072053,-2.04792502,-0.000274883
0.045,-2.578072053,-2.044257931,-0.000271192
0.04525,-2.578072053,-2.044257931,-0.000271192
0.0455,-2.578072053,-2.040590842,-0.0002675
0.04575,-2.578072053,-2.036923752,-0.0002675
0.046,-2.578072053,-2.033256663,-0.000263808
0.04625,-2.578072053,-2.033256663,-0.000263808
0.0465,-2.574421072,-2.029589574,-0.000260117
0.04675,-2.574421072,-2.029589574,-0.000260117
0.047,-2.574421072,-2.029589574,-0.000260117
0.04725,-2.574421072,-2.025922484,-0.000256425
0.0475,-2.574421072,-2.022255395,-0.000256425
0.04775,-2.574421072,-2.022255395,-0.000256425
0.048,-2.574421072,-2.018588306,-0.000252733
0.04825,-2.574421072,-2.014921216,-0.000252733
0.0485,-2.574421072,-2.011254127,-0.000252733
0.04875,-2.574421072,-2.011254127,-0.000249042
0.049,-2.57077009,-2.007587038,-0.000249042
0.04925,-2.57077009,-2.007587038,-0.000249042
0.0495,-2.57077009,-2.003919948,-0.00024535
0.04975,-2.57077009,-2.003919948,-0.00024535
0.05,-2.57077009,-2.000252859,-0.00024535
0.05025,-2.57077009,-1.99658577,-0.00024535
0.0505,-2.57077009,-1.99658577,-0.000241658
0.05075,-2.57077009,-1.99291868,-0.000241658
0.051,-2.57077009,-1.99291868,-0.000237967
0.05125,-2.57077009,-1.989251591,-0.000237967
0.0515,-2.567119109,-1.989251591,-0.000237967
0.05175,-2.567119109,-1.985584502,-0.000234275
0.052,-2.567119109,-1.985584502,-0.000234275
0.05225,-2.567119109,-1.981917413,-0.000234275
0.0525,-2.567119109,-1.981917413,-0.000230583
0.05275,-2.567119109,-1.978250323,-0.000230583
0.053,-2.563468127,-1.974583234,-0.000230583
0.05325,-2.567119109,-1.974583234,-0.000226892
0.0535,-2.567119109,-1.970916145,-0.000226892
0.05375,-2.563468127,-1.970916145,-0.000226892
0.054,-2.563468127,-1.967249055,-0.0002232
0.05425,-2.563468127,-1.967249055,-0.0002232
0.0545,-2.563468127,-1.963581966,-0.0002232
0.05475,-2.563468127,-1.959914877,-0.0002232
0.055,-2.563468127,-1.959914877,-0.000219508
0.05525,-2.563468127,-1.959914877,-0.000219508
0.0555,-2.563468127,-1.956247787,-0.000219508
0.05575,-2.563468127,-1.956247787,-0.000215817
0.056,-2.563468127,-1.952580698,-0.000215817
0.05625,-2.559817146,-1.952580698,-0.000212125
0.0565,-2.559817146,-1.948913609,-0.000212125
0.05675,-2.559817146,-1.945246519,-0.000212125
0.057,-2.559817146,-1.945246519,-0.000212125
0.05725,-2.559817146,-1.94157943,-0.000208433
0.0575,-2.559817146,-1.937912341,-0.000208433
0.05775,-2.559817146,-1.937912341,-0.000204742
0.058,-2.559817146,-1.934245251,-0.000204742
0.05825,-2.559817146,-1.934245251,-0.000204742
0.0585,-2.556166164,-1.930578162,-0.000204742
0.05875,-2.556166164,-1.926911073,-0.000204742
0.059,-2.556166164,-1.923243983,-0.00020105
0.05925,-2.556166164,-1.923243983,-0.00020105
0.0595,-2.556166164,-1.919576894,-0.00020105
0.05975,-2.556166164,-1.919576894,-0.000197358
0.06,-2.556166164,-1.915909805,-0.000197358
0.06025,-2.556166164,-1.915909805,-0.000193667
0.0605,-2.556166164,-1.912242715,-0.000193667
0.06075,-2.556166164,-1.912242715,-0.000193667
0.061,-2.552515183,-1.908575626,-0.000193667
0.06125,-2.556166164,-1.904908537,-0.000193667
0.0615,-2.552515183,-1.904908537,-0.000189975
0.06175,-2.552515183,-1.901241447,-0.000189975
0.062,-2.552515183,-1.901241447,-0.000186283
0.06225,-2.552515183,-1.897574358,-0.000186283
0.0625,-2.552515183,-1.897574358,-0.000186283
0.06275,-2.552515183,-1.893907269,-0.000186283
0.063,-2.552515183,-1.890240179,-0.000182592
0.06325,-2.548864201,-1.890240179,-0.000182592
0.0635,-2.548864201,-1.88657309,-0.000182592
0.06375,-2.548864201,-1.882906001,-0.000182592
0.064,-2.548864201,-1.879238911,-0.0001789
0.06425,-2.548864201,-1.879238911,-0.0001789
0.0645,-2.548864201,-1.879238911,-0.0001789
0.06475,-2.548864201,-1.875571822,-0.000175208
0.065,-2.548864201,-1.871904733,-0.000175208
0.06525,-2.548864201,-1.871904733,-0.000175208
0.0655,-2.548864201,-1.868237643,-0.000175208
0.06575,-2.545213219,-1.864570554,-0.000171517
0.066,-2.545213219,-1.864570554,-0.000171517
0.06625,-2.545213219,-1.860903465,-0.000167825
0.0665,-2.545213219,-1.860903465,-0.000167825
0.06675,-2.545213219,-1.860903465,-0.000167825
0.067,-2.545213219,-1.857236375,-0.000167825
0.06725,-2.545213219,-1.853569286,-0.000164133
0.0675,-2.545213219,-1.849902197,-0.000164133
0.06775,-2.545213219,-1.849902197,-0.000164133
0.068,-2.545213219,-1.846235107,-0.000164133
0.06825,-2.541562238,-1.846235107,-0.000160442
0.0685,-2.541562238,-1.842568018,-0.000160442
0.06875,-2.541562238,-1.842568018,-0.000160442
0.069,-2.541562238,-1.838900929,-0.00015675
0.06925,-2.541562238,-1.838900929,-0.00015675
0.0695,-2.541562238,-1.83523384,-0.00015675
0.06975,-2.541562238,-1.83523384,-0.000153059
0.07,-2.541562238,-1.83156675,-0.000153059
0.07025,-2.541562238,-1.83156675,-0.000153059
0.0705,-2.541562238,-1.827899661,-0.000153059
0.07075,-2.537911256,-1.827899661,-0.000149367
0.071,-2.537911256,-1.824232572,-0.000149367
0.07125,-2.537911256,-1.820565482,-0.000149367
0.0715,-2.541562238,-1.820565482,-0.000145675
0.07175,-2.537911256,-1.816898393,-0.000145675
0.072,-2.537911256,-1.816898393,-0.000145675
0.07225,-2.537911256,-1.813231304,-0.000141984
0.0725,-2.537911256,-1.813231304,-0.000141984
0.07275,-2.537911256,-1.809564214,-0.000141984
0.073,-2.537911256,-1.805897125,-0.000141984
0.07325,-2.537911256,-1.805897125,-0.000138292
0.0735,-2.534260275,-1.802230036,-0.000138292
0.07375,-2.534260275,-1.802230036,-0.000138292
0.074,-2.534260275,-1.798562946,-0.000138292
0.07425,-2.534260275,-1.798562946,-0.0001346
0.0745,-2.534260275,-1.794895857,-0.0001346
0.07475,-2.534260275,-1.794895857,-0.0001346
0.075,-2.534260275,-1.791228768,-0.0001346
0.07525,-2.534260275,-1.787561678,-0.000130909
0.0755,-2.534260275,-1.783894589,-0.000130909
0.07575,-2.534260275,-1.783894589,-0.000130909
0.076,-2.534260275,-1.7802275,-0.000127217
0.07625,-2.530609293,-1.7802275,-0.000127217
0.0765,-2.530609293,-1.77656041,-0.000127217
0.07675,-2.530609293,-1.772893321,-0.000127217
0.077,-2.530609293,-1.772893321,-0.000127217
0.07725,-2.530609293,-1.769226232,-0.000127217
0.0775,-2.530609293,-1.765559142,-0.000123525
0.07775,-2.530609293,-1.765559142,-0.000123525
0.078,-2.530609293,-1.765559142,-0.000123525
0.07825,-2.530609293,-1.761892053,-0.000119834
0.0785,-2.526958312,-1.761892053,-0.000119834
0.07875,-2.526958312,-1.758224964,-0.000119834
0.079,-2.526958312,-1.754557874,-0.000119834
0.07925,-2.526958312,-1.754557874,-0.000116142
0.0795,-2.526958312,-1.750890785,-0.000116142
0.07975,-2.526958312,-1.750890785,-0.000116142
0.08,-2.526958312,-1.747223696,-0.000116142
0.08025,-2.526958312,-1.747223696,-0.000116142
0.0805,-2.52330733,-1.743556606,-0.00011245
0.08075,-2.52330733,-1.743556606,-0.00011245
0.081,-2.52330733,-1.739889517,-0.00011245
0.08125,-2.52330733,-1.736222428,-0.00011245
0.0815,-2.52330733,-1.736222428,-0.00011245
0.08175,-2.52330733,-1.732555338,-0.00011245
0.082,-2.52330733,-1.732555338,-0.000108759
0.08225,-2.52330733,-1.728888249,-0.000108759
0.0825,-2.52330733,-1.728888249,-0.000108759
0.08275,-2.52330733,-1.728888249,-0.000108759
0.083,-2.52330733,-1.72522116,-0.000105067
0.08325,-2.519656348,-1.72155407,-0.000105067
0.0835,-2.52330733,-1.72155407,-0.000105067
0.08375,-2.519656348,-1.717886981,-0.000105067
0.084,-2.519656348,-1.717886981,-0.000105067
0.08425,-2.519656348,-1.714219892,-0.000105067
0.0845,-2.519656348,-1.714219892,-0.000101375
0.08475,-2.519656348,-1.710552802,-0.000101375
0.085,-2.519656348,-1.706885713,-0.000101375
0.08525,-2.519656348,-1.706885713,-9.77E-05
0.0855,-2.519656348,-1.703218624,-9.77E-05
0.08575,-2.516005367,-1.703218624,-9.77E-05
0.086,-2.516005367,-1.699551535,-9.77E-05
0.08625,-2.516005367,-1.695884445,-9.77E-05
0.0865,-2.516005367,-1.695884445,-9.77E-05
0.08675,-2.516005367,-1.692217356,-9.77E-05
0.087,-2.516005367,-1.692217356,-9.40E-05
0.08725,-2.516005367,-1.688550267,-9.40E-05
0.0875,-2.516005367,-1.684883177,-9.40E-05
0.08775,-2.512354385,-1.684883177,-9.03E-05
0.088,-2.516005367,-1.681216088,-9.40E-05
0.08825,-2.512354385,-1.681216088,-9.03E-05
0.0885,-2.512354385,-1.677548999,-9.03E-05
0.08875,-2.512354385,-1.677548999,-9.03E-05
0.089,-2.512354385,-1.673881909,-8.66E-05
0.08925,-2.512354385,-1.673881909,-8.66E-05
0.0895,-2.512354385,-1.67021482,-8.66E-05
0.08975,-2.512354385,-1.666547731,-8.66E-05
0.09,-2.508703404,-1.662880641,-8.66E-05
0.09025,-2.508703404,-1.662880641,-8.66E-05
0.0905,-2.508703404,-1.659213552,-8.66E-05
0.09075,-2.508703404,-1.659213552,-8.29E-05
0.091,-2.508703404,-1.655546463,-8.29E-05
0.09125,-2.508703404,-1.655546463,-8.29E-05
0.0915,-2.508703404,-1.651879373,-8.29E-05
0.09175,-2.508703404,-1.651879373,-7.92E-05
0.092,-2.508703404,-1.648212284,-7.92E-05
0.09225,-2.508703404,-1.648212284,-7.92E-05
0.0925,-2.508703404,-1.644545195,-7.92E-05
0.09275,-2.505052422,-1.640878105,-7.55E-05
0.093,-2.505052422,-1.640878105,-7.55E-05
0.09325,-2.505052422,-1.637211016,-7.55E-05
0.0935,-2.505052422,-1.637211016,-7.55E-05
0.09375,-2.505052422,-1.633543927,-7.55E-05
0.094,-2.505052422,-1.629876837,-7.55E-05
0.09425,-2.505052422,-1.629876837,-7.55E-05
0.0945,-2.505052422,-1.626209748,-7.55E-05
0.09475,-2.505052422,-1.626209748,-7.55E-05
0.095,-2.505052422,-1.622542659,-7.55E-05
0.09525,-2.501401441,-1.618875569,-7.18E-05
0.0955,-2.501401441,-1.618875569,-7.18E-05
0.09575,-2.501401441,-1.61520848,-7.18E-05
0.096,-2.501401441,-1.61520848,-7.18E-05
0.09625,-2.501401441,-1.61520848,-7.18E-05
0.0965,-2.501401441,-1.611541391,-6.82E-05
0.09675,-2.501401441,-1.607874301,-6.82E-05
0.097,-2.497750459,-1.607874301,-6.82E-05
0.09725,-2.497750459,-1.604207212,-6.82E-05
0.0975,-2.497750459,-1.604207212,-6.82E-05
0.09775,-2.497750459,-1.600540123,-6.45E-05
0.098,-2.497750459,-1.596873033,-6.45E-05
0.09825,-2.497750459,-1.596873033,-6.45E-05
0.0985,-2.497750459,-1.593205944,-6.45E-05
0.09875,-2.497750459,-1.589538855,-6.45E-05
0.099,-2.497750459,-1.589538855,-6.08E-05
0.09925,-2.497750459,-1.585871765,-6.45E-05
0.0995,-2.497750459,-1.585871765,-6.08E-05
0.09975,-2.494099478,-1.582204676,-6.08E-05
0.1,-2.494099478,-1.578537587,-6.08E-05
0.10025,-2.494099478,-1.578537587,-6.08E-05
0.1005,-2.494099478,-1.578537587,-5.71E-05
0.10075,-2.494099478,-1.574870497,-5.71E-05
0.101,-2.494099478,-1.571203408,-5.71E-05
0.10125,-2.494099478,-1.571203408,-5.71E-05
0.1015,-2.494099478,-1.567536319,-5.71E-05
0.10175,-2.494099478,-1.567536319,-5.71E-05
0.102,-2.490448496,-1.563869229,-5.71E-05
0.10225,-2.490448496,-1.56020214,-5.34E-05
0.1025,-2.490448496,-1.556535051,-5.34E-05
0.10275,-2.490448496,-1.556535051,-5.34E-05
0.103,-2.490448496,-1.556535051,-5.34E-05
0.10325,-2.490448496,-1.552867962,-5.34E-05
0.1035,-2.490448496,-1.549200872,-5.34E-05
0.10375,-2.490448496,-1.545533783,-5.34E-05
0.104,-2.490448496,-1.545533783,-5.34E-05
0.10425,-2.486797514,-1.541866694,-4.97E-05
0.1045,-2.486797514,-1.538199604,-4.97E-05
0.10475,-2.486797514,-1.538199604,-4.97E-05
0.105,-2.486797514,-1.538199604,-4.97E-05
0.10525,-2.486797514,-1.534532515,-4.97E-05
0.1055,-2.486797514,-1.534532515,-4.60E-05
0.10575,-2.486797514,-1.530865426,-4.97E-05
0.106,-2.486797514,-1.530865426,-4.60E-05
0.10625,-2.486797514,-1.527198336,-4.60E-05
0.1065,-2.483146533,-1.523531247,-4.60E-05
0.10675,-2.483146533,-1.523531247,-4.60E-05
0.107,-2.483146533,-1.519864158,-4.60E-05
0.10725,-2.483146533,-1.519864158,-4.23E-05
0.1075,-2.483146533,-1.516197068,-4.60E-05
0.10775,-2.483146533,-1.512529979,-4.23E-05
0.108,-2.483146533,-1.512529979,-4.60E-05
0.10825,-2.483146533,-1.512529979,-4.23E-05
0.1085,-2.483146533,-1.50886289,-4.23E-05
0.10875,-2.483146533,-1.5051958,-4.23E-05
0.109,-2.479495551,-1.5051958,-4.23E-05
0.10925,-2.479495551,-1.501528711,-4.23E-05
0.1095,-2.479495551,-1.501528711,-4.23E-05
0.10975,-2.479495551,-1.501528711,-4.23E-05
0.11,-2.479495551,-1.497861622,-3.86E-05
0.11025,-2.479495551,-1.497861622,-3.86E-05
0.1105,-2.479495551,-1.494194532,-3.86E-05
0.11075,-2.479495551,-1.490527443,-3.86E-05
0.111,-2.47584457,-1.490527443,-3.86E-05
0.11125,-2.47584457,-1.486860354,-3.86E-05
0.1115,-2.47584457,-1.483193264,-3.86E-05
0.11175,-2.47584457,-1.483193264,-3.86E-05
0.112,-2.47584457,-1.479526175,-3.86E-05
0.11225,-2.47584457,-1.479526175,-3.49E-05
0.1125,-2.47584457,-1.475859086,-3.49E-05
0.11275,-2.472193588,-1.475859086,-3.49E-05
0.113,-2.472193588,-1.472191996,-3.49E-05
0.11325,-2.47584457,-1.472191996,-3.49E-05
0.1135,-2.472193588,-1.468524907,-3.49E-05
0.11375,-2.472193588,-1.464857818,-3.49E-05
0.114,-2.472193588,-1.464857818,-3.49E-05
0.11425,-2.472193588,-1.464857818,-3.49E-05
0.1145,-2.472193588,-1.461190728,-3.12E-05
0.11475,-2.472193588,-1.457523639,-3.12E-05
0.115,-2.468542607,-1.45385655,-3.12E-05
0.11525,-2.468542607,-1.45385655,-3.12E-05
0.1155,-2.468542607,-1.45018946,-3.12E-05
0.11575,-2.468542607,-1.446522371,-3.12E-05
0.116,-2.468542607,-1.446522371,-3.12E-05
0.11625,-2.468542607,-1.446522371,-3.12E-05
0.1165,-2.468542607,-1.442855282,-3.12E-05
0.11675,-2.468542607,-1.439188192,-3.12E-05
0.117,-2.468542607,-1.439188192,-3.12E-05
0.11725,-2.464891625,-1.435521103,-3.12E-05
0.1175,-2.464891625,-1.435521103,-3.12E-05
0.11775,-2.464891625,-1.431854014,-2.75E-05
0.118,-2.464891625,-1.431854014,-2.75E-05
0.11825,-2.464891625,-1.428186924,-2.75E-05
0.1185,-2.464891625,-1.428186924,-2.75E-05
0.11875,-2.461240643,-1.424519835,-2.75E-05
0.119,-2.461240643,-1.420852746,-2.75E-05
0.11925,-2.461240643,-1.420852746,-2.75E-05
0.1195,-2.461240643,-1.417185657,-2.75E-05
0.11975,-2.461240643,-1.417185657,-2.75E-05
0.12,-2.461240643,-1.413518567,-2.75E-05
0.12025,-2.457589662,-1.409851478,-2.39E-05
0.1205,-2.461240643,-1.409851478,-2.39E-05
0.12075,-2.457589662,-1.406184389,-2.39E-05
0.121,-2.461240643,-1.406184389,-2.39E-05
0.12125,-2.457589662,-1.402517299,-2.39E-05
0.1215,-2.457589662,-1.402517299,-2.39E-05
0.12175,-2.457589662,-1.39885021,-2.39E-05
0.122,-2.457589662,-1.39885021,-2.39E-05
0.12225,-2.457589662,-1.395183121,-2.39E-05
0.1225,-2.457589662,-1.395183121,-2.39E-05
0.12275,-2.457589662,-1.391516031,-2.39E-05
0.123,-2.457589662,-1.391516031,-2.39E-05
0.12325,-2.457589662,-1.387848942,-2.02E-05
0.1235,-2.45393868,-1.384181853,-2.39E-05
0.12375,-2.45393868,-1.384181853,-2.02E-05
0.124,-2.45393868,-1.380514763,-2.02E-05
0.12425,-2.45393868,-1.380514763,-2.02E-05
0.1245,-2.45393868,-1.376847674,-2.02E-05
0.12475,-2.45393868,-1.376847674,-2.02E-05
0.125,-2.45393868,-1.373180585,-2.02E-05
0.12525,-2.450287699,-1.369513495,-2.02E-05
0.1255,-2.450287699,-1.369513495,-2.02E-05
0.12575,-2.450287699,-1.365846406,-1.65E-05
0.126,-2.450287699,-1.365846406,-1.65E-05
0.12625,-2.450287699,-1.362179317,-1.65E-05
0.1265,-2.450287699,-1.362179317,-2.02E-05
0.12675,-2.450287699,-1.358512227,-2.02E-05
0.127,-2.450287699,-1.358512227,-2.02E-05
0.12725,-2.450287699,-1.354845138,-2.02E-05
0.1275,-2.446636717,-1.354845138,-2.02E-05
0.12775,-2.446636717,-1.354845138,-2.02E-05
0.128,-2.446636717,-1.351178049,-1.65E-05
0.12825,-2.446636717,-1.347510959,-1.65E-05
0.1285,-2.446636717,-1.347510959,-1.65E-05
0.12875,-2.446636717,-1.34384387,-1.65E-05
0.129,-2.446636717,-1.34384387,-1.65E-05
0.12925,-2.442985736,-1.340176781,-1.65E-05
0.1295,-2.442985736,-1.336509691,-1.65E-05
0.12975,-2.442985736,-1.336509691,-1.65E-05
0.13,-2.442985736,-1.336509691,-1.65E-05
0.13025,-2.442985736,-1.332842602,-1.28E-05
0.1305,-2.442985736,-1.329175513,-1.65E-05
0.13075,-2.442985736,-1.329175513,-1.65E-05
0.131,-2.439334754,-1.325508423,-1.65E-05
0.13125,-2.439334754,-1.321841334,-1.65E-05
0.1315,-2.439334754,-1.321841334,-1.65E-05
0.13175,-2.439334754,-1.318174245,-1.65E-05
0.132,-2.439334754,-1.318174245,-1.28E-05
0.13225,-2.439334754,-1.314507155,-1.28E-05
0.1325,-2.439334754,-1.314507155,-1.28E-05
0.13275,-2.435683773,-1.310840066,-1.28E-05
0.133,-2.435683773,-1.310840066,-1.28E-05
0.13325,-2.435683773,-1.307172977,-1.28E-05
0.1335,-2.435683773,-1.303505887,-1.28E-05
0.13375,-2.435683773,-1.303505887,-1.28E-05
0.134,-2.435683773,-1.299838798,-1.28E-05
0.13425,-2.435683773,-1.299838798,-9.08E-06
0.1345,-2.435683773,-1.296171709,-9.08E-06
0.13475,-2.432032791,-1.296171709,-9.08E-06
0.135,-2.435683773,-1.292504619,-9.08E-06
0.13525,-2.432032791,-1.292504619,-9.08E-06
0.1355,-2.432032791,-1.28883753,-1.28E-05
0.13575,-2.432032791,-1.285170441,-9.08E-06
0.136,-2.432032791,-1.285170441,-9.08E-06
0.13625,-2.432032791,-1.285170441,-9.08E-06
0.1365,-2.432032791,-1.281503351,-9.08E-06
0.13675,-2.432032791,-1.281503351,-9.08E-06
0.137,-2.432032791,-1.277836262,-9.08E-06
0.13725,-2.428381809,-1.277836262,-9.08E-06
0.1375,-2.428381809,-1.274169173,-9.08E-06
0.13775,-2.428381809,-1.274169173,-9.08E-06
0.138,-2.428381809,-1.270502084,-9.08E-06
0.13825,-2.428381809,-1.270502084,-9.08E-06
0.1385,-2.428381809,-1.266834994,-9.08E-06
0.13875,-2.424730828,-1.266834994,-9.08E-06
0.139,-2.424730828,-1.263167905,-5.39E-06
0.13925,-2.424730828,-1.263167905,-9.08E-06
0.1395,-2.424730828,-1.259500816,-9.08E-06
0.13975,-2.424730828,-1.259500816,-9.08E-06
0.14,-2.424730828,-1.255833726,-9.08E-06
0.14025,-2.424730828,-1.252166637,-9.08E-06
0.1405,-2.421079846,-1.252166637,-5.39E-06
0.14075,-2.421079846,-1.248499548,-5.39E-06
0.141,-2.421079846,-1.248499548,-5.39E-06
0.14125,-2.421079846,-1.248499548,-5.39E-06
0.1415,-2.421079846,-1.244832458,-5.39E-06
0.14175,-2.421079846,-1.241165369,-5.39E-06
0.142,-2.421079846,-1.23749828,-5.39E-06
0.14225,-2.421079846,-1.23749828,-9.08E-06
0.1425,-2.417428865,-1.23749828,-5.39E-06
0.14275,-2.417428865,-1.23383119,-5.39E-06
0.143,-2.417428865,-1.23383119,-5.39E-06
0.14325,-2.417428865,-1.230164101,-5.39E-06
0.1435,-2.417428865,-1.226497012,-5.39E-06
0.14375,-2.417428865,-1.226497012,-5.39E-06
0.144,-2.417428865,-1.226497012,-5.39E-06
0.14425,-2.417428865,-1.222829922,-5.39E-06
0.1445,-2.417428865,-1.219162833,-5.39E-06
0.14475,-2.413777883,-1.219162833,-5.39E-06
0.145,-2.413777883,-1.215495744,-5.39E-06
0.14525,-2.413777883,-1.215495744,-5.39E-06
0.1455,-2.413777883,-1.211828654,-5.39E-06
0.14575,-2.413777883,-1.208161565,-5.39E-06
0.146,-2.413777883,-1.208161565,-5.39E-06
0.14625,-2.413777883,-1.204494476,-5.39E-06
0.1465,-2.410126902,-1.204494476,-5.39E-06
0.14675,-2.410126902,-1.200827386,-5.39E-06
0.147,-2.410126902,-1.197160297,-5.39E-06
0.14725,-2.410126902,-1.197160297,-5.39E-06
0.1475,-2.410126902,-1.197160297,-5.39E-06
0.14775,-2.40647592,-1.193493208,-5.39E-06
0.148,-2.40647592,-1.189826118,-5.39E-06
0.14825,-2.40647592,-1.189826118,-5.39E-06
0.1485,-2.40647592,-1.186159029,-5.39E-06
0.14875,-2.40647592,-1.18249194,-5.39E-06
0.149,-2.40647592,-1.18249194,-5.39E-06
0.14925,-2.40647592,-1.18249194,-5.39E-06
0.1495,-2.402824939,-1.17882485,-5.39E-06
0.14975,-2.402824939,-1.175157761,-5.39E-06
0.15,-2.402824939,-1.175157761,-5.39E-06
0.15025,-2.402824939,-1.171490672,-5.39E-06
0.1505,-2.402824939,-1.171490672,-5.39E-06
0.15075,-2.402824939,-1.167823582,-5.39E-06
0.151,-2.402824939,-1.167823582,-5.39E-06
0.15125,-2.402824939,-1.164156493,-5.39E-06
0.1515,-2.399173957,-1.164156493,-1.70E-06
0.15175,-2.399173957,-1.160489404,-5.39E-06
0.152,-2.399173957,-1.156822314,-1.70E-06
0.15225,-2.399173957,-1.156822314,-5.39E-06
0.1525,-2.399173957,-1.153155225,-1.70E-06
0.15275,-2.399173957,-1.153155225,-1.70E-06
0.153,-2.399173957,-1.149488136,-1.70E-06
0.15325,-2.395522975,-1.145821046,-1.70E-06
0.1535,-2.395522975,-1.145821046,-1.70E-06
0.15375,-2.395522975,-1.142153957,-1.70E-06
0.154,-2.395522975,-1.138486868,-1.70E-06
0.15425,-2.395522975,-1.138486868,-1.70E-06
0.1545,-2.395522975,-1.134819779,-1.70E-06
0.15475,-2.395522975,-1.134819779,-1.70E-06
0.155,-2.395522975,-1.131152689,-1.70E-06
0.15525,-2.391871994,-1.131152689,-1.70E-06
0.1555,-2.391871994,-1.1274856,-1.70E-06
0.15575,-2.391871994,-1.1274856,-1.70E-06
0.156,-2.391871994,-1.123818511,-1.70E-06
0.15625,-2.391871994,-1.120151421,-1.70E-06
0.1565,-2.391871994,-1.120151421,-1.70E-06
0.15675,-2.388221012,-1.116484332,-1.70E-06
0.157,-2.388221012,-1.116484332,-1.70E-06
0.15725,-2.388221012,-1.112817243,-1.70E-06
0.1575,-2.388221012,-1.112817243,-1.70E-06
0.15775,-2.388221012,-1.109150153,-1.70E-06
0.158,-2.388221012,-1.105483064,-1.70E-06
0.15825,-2.388221012,-1.105483064,-1.70E-06
0.1585,-2.388221012,-1.101815975,-1.70E-06
0.15875,-2.384570031,-1.101815975,-1.70E-06
0.159,-2.384570031,-1.098148885,-1.70E-06
0.15925,-2.384570031,-1.098148885,-1.70E-06
0.1595,-2.384570031,-1.098148885,-1.70E-06
0.15975,-2.384570031,-1.094481796,-1.70E-06
0.16,-2.384570031,-1.090814707,-1.70E-06
0.16025,-2.380919049,-1.090814707,-1.70E-06
0.1605,-2.380919049,-1.087147617,-1.70E-06
0.16075,-2.380919049,-1.087147617,-1.70E-06
0.161,-2.380919049,-1.083480528,-1.70E-06
0.16125,-2.380919049,-1.079813439,-1.70E-06
0.1615,-2.380919049,-1.079813439,-1.70E-06
0.16175,-2.380919049,-1.079813439,-1.70E-06
0.162,-2.380919049,-1.076146349,-1.70E-06
0.16225,-2.377268068,-1.07247926,-1.70E-06
0.1625,-2.377268068,-1.07247926,-1.70E-06
0.16275,-2.377268068,-1.068812171,-1.70E-06
0.163,-2.377268068,-1.065145081,-1.70E-06
0.16325,-2.377268068,-1.065145081,-1.70E-06
0.1635,-2.373617086,-1.065145081,-1.70E-06
0.16375,-2.373617086,-1.061477992,-1.70E-06
0.164,-2.373617086,-1.061477992,-1.70E-06
0.16425,-2.373617086,-1.057810903,-1.70E-06
0.1645,-2.373617086,-1.057810903,-1.70E-06
0.16475,-2.373617086,-1.054143813,-1.70E-06
0.165,-2.373617086,-1.054143813,-1.70E-06
0.16525,-2.369966104,-1.050476724,-1.70E-06
0.1655,-2.369966104,-1.050476724,-1.70E-06
0.16575,-2.369966104,-1.046809635,-1.70E-06
0.166,-2.366315123,-1.046809635,-1.70E-06
0.16625,-2.369966104,-1.043142545,-1.70E-06
0.1665,-2.369966104,-1.043142545,-1.70E-06
0.16675,-2.366315123,-1.039475456,-1.70E-06
0.167,-2.366315123,-1.039475456,-1.70E-06
0.16725,-2.366315123,-1.035808367,-1.70E-06
0.1675,-2.366315123,-1.035808367,-1.70E-06
0.16775,-2.366315123,-1.032141277,-1.70E-06
0.168,-2.366315123,-1.032141277,-1.70E-06
0.16825,-2.366315123,-1.028474188,-1.70E-06
0.1685,-2.366315123,-1.028474188,-1.70E-06
0.16875,-2.362664141,-1.024807099,-1.70E-06
0.169,-2.362664141,-1.024807099,-1.70E-06
0.16925,-2.362664141,-1.021140009,-1.70E-06
0.1695,-2.362664141,-1.021140009,-1.70E-06
0.16975,-2.362664141,-1.01747292,-1.70E-06
0.17,-2.362664141,-1.01747292,-1.70E-06
0.17025,-2.35901316,-1.013805831,-1.70E-06
0.1705,-2.35901316,-1.013805831,-1.70E-06
0.17075,-2.35901316,-1.010138741,-1.70E-06
0.171,-2.35901316,-1.006471652,-1.70E-06
0.17125,-2.35901316,-1.006471652,-1.70E-06
0.1715,-2.355362178,-1.002804563,-1.70E-06
0.17175,-2.355362178,-1.002804563,-1.70E-06
0.172,-2.355362178,-1.002804563,-1.70E-06
0.17225,-2.355362178,-0.999137473,-1.70E-06
0.1725,-2.355362178,-0.995470384,-1.70E-06
0.17275,-2.355362178,-0.995470384,-1.70E-06
0.173,-2.355362178,-0.991803295,-1.70E-06
0.17325,-2.351711197,-0.991803295,-1.70E-06
0.1735,-2.351711197,-0.988136206,-1.70E-06
0.17375,-2.351711197,-0.984469116,-1.70E-06
0.174,-2.351711197,-0.984469116,-1.70E-06
0.17425,-2.348060215,-0.980802027,-1.70E-06
0.1745,-2.351711197,-0.980802027,-1.70E-06
0.17475,-2.348060215,-0.977134938,-1.70E-06
0.175,-2.348060215,-0.977134938,-1.70E-06
0.17525,-2.348060215,-0.973467848,-1.70E-06
0.1755,-2.348060215,-0.973467848,-1.70E-06
0.17575,-2.348060215,-0.969800759,-1.70E-06
0.176,-2.344409234,-0.969800759,-1.70E-06
0.17625,-2.348060215,-0.96613367,-1.70E-06
0.1765,-2.344409234,-0.96246658,-1.70E-06
0.17675,-2.344409234,-0.96246658,-1.70E-06
0.177,-2.344409234,-0.958799491,-1.70E-06
0.17725,-2.344409234,-0.958799491,-1.70E-06
0.1775,-2.340758252,-0.955132402,-1.70E-06
0.17775,-2.340758252,-0.955132402,-1.70E-06
0.178,-2.340758252,-0.951465312,-1.70E-06
0.17825,-2.340758252,-0.951465312,-1.70E-06
0.1785,-2.340758252,-0.947798223,-1.70E-06
0.17875,-2.340758252,-0.947798223,-1.70E-06
0.179,-2.33710727,-0.944131134,-1.70E-06
0.17925,-2.33710727,-0.944131134,-1.70E-06
0.1795,-2.33710727,-0.940464044,-1.70E-06
0.17975,-2.33710727,-0.940464044,1.99E-06
0.18,-2.33710727,-0.936796955,1.99E-06
0.18025,-2.33710727,-0.936796955,1.99E-06
0.1805,-2.333456289,-0.933129866,1.99E-06
0.18075,-2.333456289,-0.933129866,-1.70E-06
0.181,-2.333456289,-0.929462776,-1.70E-06
0.18125,-2.333456289,-0.925795687,-1.70E-06
0.1815,-2.333456289,-0.925795687,-1.70E-06
0.18175,-2.333456289,-0.925795687,1.99E-06
0.182,-2.333456289,-0.922128598,-1.70E-06
0.18225,-2.329805307,-0.918461508,-1.70E-06
0.1825,-2.329805307,-0.918461508,-1.70E-06
0.18275,-2.329805307,-0.914794419,1.99E-06
0.183,-2.329805307,-0.914794419,-1.70E-06
0.18325,-2.329805307,-0.91112733,-1.70E-06
0.1835,-2.326154326,-0.91112733,-1.70E-06
0.18375,-2.326154326,-0.90746024,-1.70E-06
0.184,-2.326154326,-0.90746024,1.99E-06
0.18425,-2.326154326,-0.903793151,-1.70E-06
0.1845,-2.326154326,-0.903793151,1.99E-06
0.18475,-2.326154326,-0.900126062,1.99E-06
0.185,-2.322503344,-0.896458972,-1.70E-06
0.18525,-2.326154326,-0.896458972,-1.70E-06
0.1855,-2.322503344,-0.896458972,-1.70E-06
0.18575,-2.322503344,-0.892791883,-1.70E-06
0.186,-2.322503344,-0.892791883,-1.70E-06
0.18625,-2.318852363,-0.892791883,-1.70E-06
0.1865,-2.318852363,-0.889124794,-1.70E-06
0.18675,-2.318852363,-0.889124794,1.99E-06
0.187,-2.318852363,-0.885457704,1.99E-06
0.18725,-2.318852363,-0.885457704,1.99E-06
0.1875,-2.318852363,-0.881790615,1.99E-06
0.18775,-2.318852363,-0.878123526,1.99E-06
0.188,-2.318852363,-0.878123526,1.99E-06
0.18825,-2.315201381,-0.874456436,1.99E-06
0.1885,-2.315201381,-0.874456436,1.99E-06
0.18875,-2.315201381,-0.874456436,1.99E-06
0.189,-2.315201381,-0.870789347,1.99E-06
0.18925,-2.315201381,-0.867122258,1.99E-06
0.1895,-2.315201381,-0.867122258,1.99E-06
0.18975,-2.315201381,-0.867122258,1.99E-06
0.19,-2.3115504,-0.863455168,1.99E-06
0.19025,-2.3115504,-0.859788079,1.99E-06
0.1905,-2.3115504,-0.859788079,1.99E-06
0.19075,-2.3115504,-0.85612099,1.99E-06
0.191,-2.307899418,-0.85612099,1.99E-06
0.19125,-2.307899418,-0.85612099,1.99E-06
0.1915,-2.307899418,-0.852453901,1.99E-06
0.19175,-2.307899418,-0.848786811,1.99E-06
0.192,-2.307899418,-0.848786811,1.99E-06
0.19225,-2.307899418,-0.845119722,1.99E-06
0.1925,-2.304248436,-0.845119722,1.99E-06
0.19275,-2.304248436,-0.841452633,1.99E-06
0.193,-2.304248436,-0.841452633,1.99E-06
0.19325,-2.304248436,-0.837785543,1.99E-06
0.1935,-2.304248436,-0.834118454,1.99E-06
0.19375,-2.304248436,-0.834118454,1.99E-06
0.194,-2.304248436,-0.834118454,-1.70E-06
0.19425,-2.304248436,-0.830451365,1.99E-06
0.1945,-2.300597455,-0.830451365,1.99E-06
0.19475,-2.300597455,-0.826784275,-1.70E-06
0.195,-2.300597455,-0.823117186,1.99E-06
0.19525,-2.296946473,-0.823117186,1.99E-06
0.1955,-2.296946473,-0.819450097,-1.70E-06
0.19575,-2.296946473,-0.819450097,1.99E-06
0.196,-2.296946473,-0.819450097,1.99E-06
0.19625,-2.296946473,-0.819450097,1.99E-06
0.1965,-2.296946473,-0.815783007,-1.70E-06
0.19675,-2.296946473,-0.815783007,1.99E-06
0.197,-2.296946473,-0.812115918,1.99E-06
0.19725,-2.293295492,-0.808448829,1.99E-06
0.1975,-2.293295492,-0.808448829,1.99E-06
0.19775,-2.293295492,-0.804781739,1.99E-06
0.198,-2.293295492,-0.804781739,1.99E-06
0.19825,-2.28964451,-0.804781739,1.99E-06
0.1985,-2.28964451,-0.80111465,1.99E-06
0.19875,-2.28964451,-0.80111465,1.99E-06
0.199,-2.28964451,-0.80111465,1.99E-06
0.19925,-2.28964451,-0.797447561,1.99E-06
0.1995,-2.28964451,-0.793780471,1.99E-06
0.19975,-2.285993529,-0.793780471,1.99E-06
0.2,-2.285993529,-0.793780471,1.99E-06
0.20025,-2.285993529,-0.790113382,1.99E-06
0.2005,-2.285993529,-0.790113382,1.99E-06
0.20075,-2.282342547,-0.786446293,1.99E-06
0.201,-2.282342547,-0.786446293,1.99E-06
0.20125,-2.282342547,-0.782779203,1.99E-06
0.2015,-2.282342547,-0.782779203,1.99E-06
0.20175,-2.282342547,-0.779112114,1.99E-06
0.202,-2.282342547,-0.779112114,1.99E-06
0.20225,-2.282342547,-0.775445025,1.99E-06
0.2025,-2.278691565,-0.775445025,1.99E-06
0.20275,-2.278691565,-0.771777935,1.99E-06
0.203,-2.278691565,-0.771777935,1.99E-06
0.20325,-2.278691565,-0.768110846,1.99E-06
0.2035,-2.275040584,-0.764443757,1.99E-06
0.20375,-2.275040584,-0.764443757,1.99E-06
0.204,-2.275040584,-0.760776667,1.99E-06
0.20425,-2.275040584,-0.760776667,1.99E-06
0.2045,-2.275040584,-0.757109578,1.99E-06
0.20475,-2.275040584,-0.757109578,1.99E-06
0.205,-2.275040584,-0.757109578,1.99E-06
0.20525,-2.275040584,-0.753442489,1.99E-06
0.2055,-2.271389602,-0.749775399,1.99E-06
0.20575,-2.271389602,-0.749775399,1.99E-06
0.206,-2.271389602,-0.74610831,1.99E-06
0.20625,-2.267738621,-0.74610831,1.99E-06
0.2065,-2.267738621,-0.742441221,1.99E-06
0.20675,-2.267738621,-0.742441221,1.99E-06
0.207,-2.267738621,-0.742441221,1.99E-06
0.20725,-2.267738621,-0.738774131,1.99E-06
0.2075,-2.264087639,-0.735107042,1.99E-06
0.20775,-2.264087639,-0.735107042,1.99E-06
0.208,-2.264087639,-0.731439953,1.99E-06
0.20825,-2.264087639,-0.731439953,1.99E-06
0.2085,-2.264087639,-0.727772863,1.99E-06
0.20875,-2.264087639,-0.727772863,1.99E-06
0.209,-2.264087639,-0.724105774,1.99E-06
0.20925,-2.260436658,-0.724105774,1.99E-06
0.2095,-2.260436658,-0.720438685,1.99E-06
0.20975,-2.260436658,-0.720438685,1.99E-06
0.21,-2.260436658,-0.716771595,1.99E-06
0.21025,-2.260436658,-0.716771595,1.99E-06
0.2105,-2.260436658,-0.713104506,1.99E-06
0.21075,-2.256785676,-0.713104506,1.99E-06
0.211,-2.256785676,-0.709437417,1.99E-06
0.21125,-2.256785676,-0.709437417,1.99E-06
0.2115,-2.256785676,-0.705770328,1.99E-06
0.21175,-2.256785676,-0.705770328,1.99E-06
0.212,-2.253134695,-0.702103238,1.99E-06
0.21225,-2.253134695,-0.702103238,1.99E-06
0.2125,-2.253134695,-0.698436149,1.99E-06
0.21275,-2.253134695,-0.698436149,1.99E-06
0.213,-2.249483713,-0.698436149,1.99E-06
0.21325,-2.249483713,-0.69476906,1.99E-06
0.2135,-2.249483713,-0.69476906,1.99E-06
0.21375,-2.249483713,-0.69110197,1.99E-06
0.214,-2.249483713,-0.69110197,1.99E-06
0.21425,-2.245832731,-0.687434881,1.99E-06
0.2145,-2.245832731,-0.687434881,-1.70E-06
0.21475,-2.245832731,-0.683767792,1.99E-06
0.215,-2.245832731,-0.683767792,1.99E-06
0.21525,-2.245832731,-0.680100702,1.99E-06
0.2155,-2.24218175,-0.680100702,1.99E-06
0.21575,-2.24218175,-0.676433613,1.99E-06
0.216,-2.24218175,-0.676433613,1.99E-06
0.21625,-2.24218175,-0.672766524,1.99E-06
0.2165,-2.24218175,-0.672766524,1.99E-06
0.21675,-2.238530768,-0.669099434,1.99E-06
0.217,-2.238530768,-0.669099434,1.99E-06
0.21725,-2.238530768,-0.665432345,1.99E-06
0.2175,-2.238530768,-0.665432345,1.99E-06
0.21775,-2.234879787,-0.661765256,1.99E-06
0.218,-2.234879787,-0.661765256,1.99E-06
0.21825,-2.234879787,-0.658098166,1.99E-06
0.2185,-2.234879787,-0.658098166,1.99E-06
0.21875,-2.234879787,-0.658098166,1.99E-06
0.219,-2.234879787,-0.654431077,1.99E-06
0.21925,-2.234879787,-0.654431077,1.99E-06
0.2195,-2.231228805,-0.650763988,1.99E-06
0.21975,-2.231228805,-0.650763988,1.99E-06
0.22,-2.231228805,-0.647096898,1.99E-06
0.22025,-2.231228805,-0.643429809,1.99E-06
0.2205,-2.227577824,-0.643429809,1.99E-06
0.22075,-2.227577824,-0.63976272,1.99E-06
0.221,-2.227577824,-0.63976272,1.99E-06
0.22125,-2.227577824,-0.63609563,1.99E-06
0.2215,-2.223926842,-0.63609563,1.99E-06
0.22175,-2.223926842,-0.632428541,1.99E-06
0.222,-2.223926842,-0.632428541,1.99E-06
0.22225,-2.223926842,-0.628761452,1.99E-06
0.2225,-2.223926842,-0.628761452,1.99E-06
0.22275,-2.22027586,-0.625094362,1.99E-06
0.223,-2.22027586,-0.625094362,1.99E-06
0.22325,-2.22027586,-0.621427273,1.99E-06
0.2235,-2.22027586,-0.621427273,1.99E-06
0.22375,-2.22027586,-0.621427273,1.99E-06
0.224,-2.216624879,-0.617760184,1.99E-06
0.22425,-2.216624879,-0.614093094,1.99E-06
0.2245,-2.216624879,-0.614093094,1.99E-06
0.22475,-2.216624879,-0.614093094,1.99E-06
0.225,-2.212973897,-0.610426005,1.99E-06
0.22525,-2.216624879,-0.610426005,1.99E-06
0.2255,-2.212973897,-0.606758916,1.99E-06
0.22575,-2.212973897,-0.603091826,1.99E-06
0.226,-2.212973897,-0.599424737,1.99E-06
0.22625,-2.209322916,-0.599424737,1.99E-06
0.2265,-2.209322916,-0.599424737,1.99E-06
0.22675,-2.209322916,-0.595757648,1.99E-06
0.227,-2.209322916,-0.595757648,1.99E-06
0.22725,-2.209322916,-0.592090558,1.99E-06
0.2275,-2.209322916,-0.592090558,1.99E-06
0.22775,-2.205671934,-0.592090558,1.99E-06
0.228,-2.205671934,-0.588423469,1.99E-06
0.22825,-2.205671934,-0.588423469,1.99E-06
0.2285,-2.205671934,-0.58475638,1.99E-06
0.22875,-2.202020953,-0.58475638,1.99E-06
0.229,-2.202020953,-0.58475638,1.99E-06
0.22925,-2.202020953,-0.58108929,1.99E-06
0.2295,-2.202020953,-0.58108929,1.99E-06
0.22975,-2.202020953,-0.577422201,1.99E-06
0.23,-2.198369971,-0.577422201,1.99E-06
0.23025,-2.198369971,-0.573755112,1.99E-06
0.2305,-2.198369971,-0.573755112,1.99E-06
0.23075,-2.198369971,-0.573755112,1.99E-06
0.231,-2.19471899,-0.570088023,1.99E-06
0.23125,-2.19471899,-0.570088023,1.99E-06
0.2315,-2.19471899,-0.570088023,1.99E-06
0.23175,-2.19471899,-0.566420933,1.99E-06
0.232,-2.191068008,-0.566420933,1.99E-06
0.23225,-2.191068008,-0.562753844,1.99E-06
0.2325,-2.191068008,-0.562753844,1.99E-06
0.23275,-2.191068008,-0.559086755,1.99E-06
0.233,-2.191068008,-0.559086755,1.99E-06
0.23325,-2.191068008,-0.555419665,1.99E-06
0.2335,-2.187417026,-0.555419665,1.99E-06
0.23375,-2.187417026,-0.555419665,1.99E-06
0.234,-2.183766045,-0.551752576,1.99E-06
0.23425,-2.183766045,-0.548085487,5.68E-06
0.2345,-2.183766045,-0.548085487,1.99E-06
0.23475,-2.183766045,-0.544418397,1.99E-06
0.235,-2.180115063,-0.544418397,1.99E-06
0.23525,-2.180115063,-0.544418397,1.99E-06
0.2355,-2.180115063,-0.540751308,1.99E-06
0.23575,-2.180115063,-0.540751308,1.99E-06
0.236,-2.176464082,-0.537084219,1.99E-06
0.23625,-2.176464082,-0.540751308,1.99E-06
0.2365,-2.176464082,-0.537084219,1.99E-06
0.23675,-2.1728131,-0.533417129,1.99E-06
0.237,-2.1728131,-0.533417129,1.99E-06
0.23725,-2.1728131,-0.52975004,1.99E-06
0.2375,-2.1728131,-0.526082951,1.99E-06
0.23775,-2.1728131,-0.526082951,1.99E-06
0.238,-2.1728131,-0.526082951,1.99E-06
0.23825,-2.169162119,-0.522415861,1.99E-06
0.2385,-2.169162119,-0.522415861,1.99E-06
0.23875,-2.169162119,-0.518748772,1.99E-06
0.239,-2.169162119,-0.518748772,1.99E-06
0.23925,-2.165511137,-0.515081683,1.99E-06
0.2395,-2.165511137,-0.515081683,1.99E-06
0.23975,-2.165511137,-0.511414593,1.99E-06
0.24,-2.165511137,-0.511414593,1.99E-06
0.24025,-2.161860156,-0.507747504,1.99E-06
0.2405,-2.161860156,-0.507747504,1.99E-06
0.24075,-2.161860156,-0.507747504,1.99E-06
0.241,-2.158209174,-0.504080415,1.99E-06
0.24125,-2.158209174,-0.504080415,1.99E-06
0.2415,-2.158209174,-0.500413325,1.99E-06
0.24175,-2.158209174,-0.500413325,1.99E-06
0.242,-2.158209174,-0.496746236,1.99E-06
0.24225,-2.154558192,-0.496746236,1.99E-06
0.2425,-2.154558192,-0.493079147,1.99E-06
0.24275,-2.154558192,-0.493079147,1.99E-06
0.243,-2.154558192,-0.493079147,1.99E-06
0.24325,-2.154558192,-0.493079147,1.99E-06
0.2435,-2.150907211,-0.489412057,1.99E-06
0.24375,-2.150907211,-0.489412057,1.99E-06
0.244,-2.150907211,-0.485744968,1.99E-06
0.24425,-2.150907211,-0.485744968,-1.70E-06
0.2445,-2.147256229,-0.482077879,1.99E-06
0.24475,-2.147256229,-0.482077879,1.99E-06
0.245,-2.147256229,-0.478410789,1.99E-06
0.24525,-2.143605248,-0.478410789,1.99E-06
0.2455,-2.143605248,-0.478410789,1.99E-06
0.24575,-2.143605248,-0.4747437,1.99E-06
0.246,-2.139954266,-0.4747437,1.99E-06
0.24625,-2.139954266,-0.471076611,1.99E-06
0.2465,-2.139954266,-0.471076611,1.99E-06
0.24675,-2.139954266,-0.467409521,1.99E-06
0.247,-2.139954266,-0.467409521,1.99E-06
0.24725,-2.136303285,-0.463742432,1.99E-06
0.2475,-2.136303285,-0.463742432,1.99E-06
0.24775,-2.136303285,-0.463742432,1.99E-06
0.248,-2.136303285,-0.460075343,1.99E-06
0.24825,-2.132652303,-0.460075343,1.99E-06
0.2485,-2.132652303,-0.456408253,1.99E-06
0.24875,-2.132652303,-0.456408253,1.99E-06
0.249,-2.132652303,-0.456408253,1.99E-06
0.24925,-2.129001321,-0.452741164,1.99E-06
0.2495,-2.129001321,-0.449074075,1.99E-06
0.24975,-2.129001321,-0.449074075,1.99E-06
0.25,-2.12535034,-0.449074075,1.99E-06
0.25025,-2.12535034,-0.445406985,1.99E-06
0.2505,-2.12535034,-0.445406985,1.99E-06
0.25075,-2.12535034,-0.445406985,1.99E-06
0.251,-2.121699358,-0.441739896,1.99E-06
0.25125,-2.121699358,-0.438072807,1.99E-06
0.2515,-2.121699358,-0.438072807,1.99E-06
0.25175,-2.121699358,-0.438072807,1.99E-06
0.252,-2.121699358,-0.434405717,1.99E-06
0.25225,-2.118048377,-0.434405717,1.99E-06
0.2525,-2.118048377,-0.430738628,1.99E-06
0.25275,-2.118048377,-0.430738628,1.99E-06
0.253,-2.114397395,-0.430738628,1.99E-06
0.25325,-2.114397395,-0.427071539,1.99E-06
0.2535,-2.114397395,-0.427071539,1.99E-06
0.25375,-2.114397395,-0.427071539,1.99E-06
0.254,-2.110746414,-0.42340445,1.99E-06
0.25425,-2.110746414,-0.42340445,1.99E-06
0.2545,-2.110746414,-0.41973736,1.99E-06
0.25475,-2.107095432,-0.41973736,1.99E-06
0.255,-2.107095432,-0.416070271,1.99E-06
0.25525,-2.107095432,-0.412403182,1.99E-06
0.2555,-2.107095432,-0.412403182,1.99E-06
0.25575,-2.107095432,-0.412403182,1.99E-06
0.256,-2.103444451,-0.412403182,1.99E-06
0.25625,-2.103444451,-0.408736092,1.99E-06
0.2565,-2.099793469,-0.408736092,1.99E-06
0.25675,-2.099793469,-0.405069003,1.99E-06
0.257,-2.099793469,-0.405069003,1.99E-06
0.25725,-2.099793469,-0.401401914,1.99E-06
0.2575,-2.099793469,-0.401401914,1.99E-06
0.25775,-2.099793469,-0.397734824,1.99E-06
0.258,-2.096142487,-0.397734824,1.99E-06
0.25825,-2.096142487,-0.397734824,1.99E-06
0.2585,-2.096142487,-0.394067735,1.99E-06
0.25875,-2.092491506,-0.394067735,1.99E-06
0.259,-2.092491506,-0.394067735,1.99E-06
0.25925,-2.092491506,-0.390400646,1.99E-06
0.2595,-2.088840524,-0.390400646,1.99E-06
0.25975,-2.088840524,-0.386733556,1.99E-06
0.26,-2.088840524,-0.386733556,1.99E-06
0.26025,-2.088840524,-0.383066467,1.99E-06
0.2605,-2.085189543,-0.383066467,1.99E-06
0.26075,-2.085189543,-0.383066467,1.99E-06
0.261,-2.085189543,-0.379399378,1.99E-06
0.26125,-2.085189543,-0.379399378,1.99E-06
0.2615,-2.081538561,-0.375732288,1.99E-06
0.26175,-2.081538561,-0.375732288,1.99E-06
0.262,-2.081538561,-0.372065199,1.99E-06
0.26225,-2.07788758,-0.372065199,1.99E-06
0.2625,-2.07788758,-0.372065199,1.99E-06
0.26275,-2.07788758,-0.36839811,1.99E-06
0.263,-2.074236598,-0.36839811,1.99E-06
0.26325,-2.074236598,-0.36839811,1.99E-06
0.2635,-2.074236598,-0.36473102,1.99E-06
0.26375,-2.074236598,-0.36473102,1.99E-06
0.264,-2.070585617,-0.361063931,1.99E-06
0.26425,-2.070585617,-0.361063931,1.99E-06
0.2645,-2.070585617,-0.357396842,1.99E-06
0.26475,-2.066934635,-0.357396842,1.99E-06
0.265,-2.066934635,-0.357396842,1.99E-06
0.26525,-2.066934635,-0.353729752,1.99E-06
0.2655,-2.066934635,-0.353729752,1.99E-06
0.26575,-2.066934635,-0.350062663,1.99E-06
0.266,-2.063283653,-0.350062663,1.99E-06
0.26625,-2.063283653,-0.350062663,5.68E-06
0.2665,-2.063283653,-0.346395574,1.99E-06
0.26675,-2.063283653,-0.346395574,1.99E-06
0.267,-2.059632672,-0.346395574,1.99E-06
0.26725,-2.059632672,-0.342728484,1.99E-06
0.2675,-2.05598169,-0.342728484,1.99E-06
0.26775,-2.05598169,-0.342728484,1.99E-06
0.268,-2.05598169,-0.342728484,1.99E-06
0.26825,-2.05598169,-0.339061395,1.99E-06
0.2685,-2.052330709,-0.339061395,1.99E-06
0.26875,-2.052330709,-0.335394306,1.99E-06
0.269,-2.052330709,-0.335394306,1.99E-06
0.26925,-2.052330709,-0.335394306,1.99E-06
0.2695,-2.048679727,-0.331727216,1.99E-06
0.26975,-2.048679727,-0.331727216,1.99E-06
0.27,-2.045028746,-0.331727216,1.99E-06
0.27025,-2.045028746,-0.328060127,1.99E-06
0.2705,-2.045028746,-0.328060127,5.68E-06
0.27075,-2.041377764,-0.328060127,1.99E-06
0.271,-2.041377764,-0.324393038,1.99E-06
0.27125,-2.041377764,-0.324393038,1.99E-06
0.2715,-2.041377764,-0.320725948,1.99E-06
0.27175,-2.037726782,-0.320725948,5.68E-06
0.272,-2.037726782,-0.320725948,5.68E-06
0.27225,-2.037726782,-0.320725948,1.99E-06
0.2725,-2.037726782,-0.317058859,5.68E-06
0.27275,-2.034075801,-0.317058859,1.99E-06
0.273,-2.034075801,-0.317058859,5.68E-06
0.27325,-2.030424819,-0.31339177,5.68E-06
0.2735,-2.034075801,-0.31339177,5.68E-06
0.27375,-2.030424819,-0.30972468,1.99E-06
0.274,-2.030424819,-0.30972468,1.99E-06
0.27425,-2.026773838,-0.30972468,1.99E-06
0.2745,-2.026773838,-0.306057591,1.99E-06
0.27475,-2.026773838,-0.306057591,1.99E-06
0.275,-2.026773838,-0.306057591,1.99E-06
0.27525,-2.023122856,-0.302390502,5.68E-06
0.2755,-2.023122856,-0.302390502,5.68E-06
0.27575,-2.023122856,-0.302390502,1.99E-06
0.276,-2.019471875,-0.298723412,5.68E-06
0.27625,-2.019471875,-0.298723412,5.68E-06
0.2765,-2.019471875,-0.295056323,1.99E-06
0.27675,-2.015820893,-0.295056323,5.68E-06
0.277,-2.015820893,-0.291389234,1.99E-06
0.27725,-2.012169912,-0.291389234,1.99E-06
0.2775,-2.012169912,-0.291389234,1.99E-06
0.27775,-2.012169912,-0.291389234,1.99E-06
0.278,-2.012169912,-0.287722145,1.99E-06
0.27825,-2.00851893,-0.287722145,1.99E-06
0.2785,-2.00851893,-0.284055055,1.99E-06
0.27875,-2.00851893,-0.284055055,1.99E-06
0.279,-2.00851893,-0.284055055,1.99E-06
0.27925,-2.004867948,-0.280387966,5.68E-06
0.2795,-2.004867948,-0.280387966,5.68E-06
0.27975,-2.004867948,-0.276720877,5.68E-06
0.28,-2.001216967,-0.276720877,5.68E-06
0.28025,-2.001216967,-0.273053787,5.68E-06
0.2805,-1.997565985,-0.273053787,1.99E-06
0.28075,-1.997565985,-0.273053787,5.68E-06
0.281,-1.997565985,-0.269386698,5.68E-06
0.28125,-1.997565985,-0.273053787,5.68E-06
0.2815,-1.993915004,-0.269386698,5.68E-06
0.28175,-1.993915004,-0.269386698,5.68E-06
0.282,-1.993915004,-0.265719609,5.68E-06
0.28225,-1.990264022,-0.265719609,1.99E-06
0.2825,-1.990264022,-0.262052519,1.99E-06
0.28275,-1.986613041,-0.262052519,1.99E-06
0.283,-1.986613041,-0.25838543,5.68E-06
0.28325,-1.986613041,-0.25838543,5.68E-06
0.2835,-1.982962059,-0.25838543,5.68E-06
0.28375,-1.982962059,-0.254718341,5.68E-06
0.284,-1.982962059,-0.254718341,1.99E-06
0.28425,-1.979311078,-0.254718341,5.68E-06
0.2845,-1.979311078,-0.251051251,1.99E-06
0.28475,-1.979311078,-0.251051251,5.68E-06
0.285,-1.975660096,-0.251051251,5.68E-06
0.28525,-1.975660096,-0.247384162,1.99E-06
0.2855,-1.975660096,-0.247384162,5.68E-06
0.28575,-1.975660096,-0.247384162,5.68E-06
0.286,-1.972009114,-0.243717073,5.68E-06
0.28625,-1.968358133,-0.243717073,5.68E-06
0.2865,-1.968358133,-0.243717073,1.99E-06
0.28675,-1.968358133,-0.243717073,5.68E-06
0.287,-1.964707151,-0.240049983,5.68E-06
0.28725,-1.964707151,-0.240049983,1.99E-06
0.2875,-1.964707151,-0.236382894,1.99E-06
0.28775,-1.96105617,-0.236382894,1.99E-06
0.288,-1.96105617,-0.236382894,5.68E-06
0.28825,-1.96105617,-0.232715805,5.68E-06
0.2885,-1.957405188,-0.232715805,5.68E-06
0.28875,-1.957405188,-0.232715805,1.99E-06
0.289,-1.957405188,-0.229048715,1.99E-06
0.28925,-1.953754207,-0.229048715,5.68E-06
0.2895,-1.953754207,-0.229048715,1.99E-06
0.28975,-1.953754207,-0.225381626,1.99E-06
0.29,-1.950103225,-0.225381626,5.68E-06
0.29025,-1.950103225,-0.225381626,1.99E-06
0.2905,-1.950103225,-0.221714537,1.99E-06
0.29075,-1.946452243,-0.221714537,1.99E-06
0.291,-1.946452243,-0.221714537,5.68E-06
0.29125,-1.946452243,-0.221714537,1.99E-06
0.2915,-1.942801262,-0.218047447,1.99E-06
0.29175,-1.942801262,-0.218047447,1.99E-06
0.292,-1.942801262,-0.218047447,5.68E-06
0.29225,-1.93915028,-0.214380358,1.99E-06
0.2925,-1.93915028,-0.214380358,5.68E-06
0.29275,-1.93915028,-0.210713269,1.99E-06
0.293,-1.935499299,-0.210713269,1.99E-06
0.29325,-1.931848317,-0.210713269,5.68E-06
0.2935,-1.931848317,-0.210713269,5.68E-06
0.29375,-1.931848317,-0.207046179,1.99E-06
0.294,-1.931848317,-0.207046179,5.68E-06
0.29425,-1.928197336,-0.20337909,5.68E-06
0.2945,-1.928197336,-0.20337909,1.99E-06
0.29475,-1.924546354,-0.20337909,5.68E-06
0.295,-1.924546354,-0.20337909,1.99E-06
0.29525,-1.924546354,-0.20337909,5.68E-06
0.2955,-1.924546354,-0.199712001,5.68E-06
0.29575,-1.920895373,-0.199712001,5.68E-06
0.296,-1.920895373,-0.199712001,5.68E-06
0.29625,-1.917244391,-0.196044911,1.99E-06
0.2965,-1.917244391,-0.196044911,5.68E-06
0.29675,-1.913593409,-0.192377822,1.99E-06
0.297,-1.913593409,-0.192377822,5.68E-06
0.29725,-1.913593409,-0.192377822,5.68E-06
0.2975,-1.909942428,-0.192377822,5.68E-06
0.29775,-1.909942428,-0.192377822,5.68E-06
0.298,-1.906291446,-0.188710733,1.99E-06
0.29825,-1.906291446,-0.188710733,1.99E-06
0.2985,-1.906291446,-0.185043643,5.68E-06
0.29875,-1.902640465,-0.185043643,5.68E-06
0.299,-1.902640465,-0.185043643,5.68E-06
0.29925,-1.902640465,-0.185043643,5.68E-06
0.2995,-1.898989483,-0.181376554,5.68E-06
0.29975,-1.898989483,-0.181376554,5.68E-06
0.3,-1.895338502,-0.181376554,5.68E-06
0.30025,-1.895338502,-0.181376554,5.68E-06
0.3005,-1.895338502,-0.177709465,5.68E-06
0.30075,-1.895338502,-0.177709465,5.68E-06
0.301,-1.89168752,-0.177709465,5.68E-06
0.30125,-1.89168752,-0.174042375,1.99E-06
0.3015,-1.89168752,-0.174042375,1.99E-06
0.30175,-1.888036538,-0.174042375,5.68E-06
0.302,-1.888036538,-0.174042375,5.68E-06
0.30225,-1.884385557,-0.170375286,5.68E-06
0.3025,-1.884385557,-0.170375286,5.68E-06
0.30275,-1.880734575,-0.166708197,5.68E-06
0.303,-1.880734575,-0.166708197,5.68E-06
0.30325,-1.880734575,-0.166708197,5.68E-06
0.3035,-1.877083594,-0.166708197,5.68E-06
0.30375,-1.877083594,-0.163041107,1.99E-06
0.304,-1.873432612,-0.163041107,1.99E-06
0.30425,-1.873432612,-0.163041107,1.99E-06
0.3045,-1.873432612,-0.163041107,1.99E-06
0.30475,-1.869781631,-0.159374018,5.68E-06
0.305,-1.869781631,-0.159374018,1.99E-06
0.30525,-1.866130649,-0.159374018,5.68E-06
0.3055,-1.866130649,-0.155706929,5.68E-06
0.30575,-1.862479668,-0.155706929,5.68E-06
0.306,-1.862479668,-0.155706929,5.68E-06
0.30625,-1.862479668,-0.15203984,1.99E-06
0.3065,-1.858828686,-0.15203984,1.99E-06
0.30675,-1.858828686,-0.15203984,5.68E-06
0.307,-1.858828686,-0.15203984,5.68E-06
0.30725,-1.855177704,-0.14837275,1.99E-06
0.3075,-1.855177704,-0.14837275,1.99E-06
0.30775,-1.855177704,-0.14837275,1.99E-06
0.308,-1.851526723,-0.144705661,5.68E-06
0.30825,-1.847875741,-0.144705661,5.68E-06
0.3085,-1.847875741,-0.144705661,5.68E-06
0.30875,-1.847875741,-0.141038572,5.68E-06
0.309,-1.84422476,-0.141038572,5.68E-06
0.30925,-1.84422476,-0.141038572,5.68E-06
0.3095,-1.84422476,-0.141038572,5.68E-06
0.30975,-1.840573778,-0.137371482,1.99E-06
0.31,-1.836922797,-0.137371482,5.68E-06
0.31025,-1.836922797,-0.137371482,5.68E-06
0.3105,-1.833271815,-0.137371482,1.99E-06
0.31075,-1.833271815,-0.133704393,1.99E-06
0.311,-1.833271815,-0.133704393,1.99E-06
0.31125,-1.829620834,-0.133704393,5.68E-06
0.3115,-1.829620834,-0.133704393,5.68E-06
0.31175,-1.825969852,-0.130037304,5.68E-06
0.312,-1.825969852,-0.130037304,1.99E-06
0.31225,-1.825969852,-0.130037304,5.68E-06
0.3125,-1.82231887,-0.126370214,5.68E-06
0.31275,-1.82231887,-0.126370214,5.68E-06
0.313,-1.818667889,-0.126370214,5.68E-06
0.31325,-1.815016907,-0.126370214,5.68E-06
0.3135,-1.815016907,-0.126370214,5.68E-06
0.31375,-1.815016907,-0.126370214,1.99E-06
0.314,-1.811365926,-0.122703125,5.68E-06
0.31425,-1.811365926,-0.122703125,5.68E-06
0.3145,-1.811365926,-0.122703125,5.68E-06
0.31475,-1.807714944,-0.119036036,5.68E-06
0.315,-1.807714944,-0.119036036,5.68E-06
0.31525,-1.804063963,-0.119036036,5.68E-06
0.3155,-1.804063963,-0.119036036,5.68E-06
0.31575,-1.800412981,-0.115368946,5.68E-06
0.316,-1.800412981,-0.115368946,5.68E-06
0.31625,-1.796761999,-0.115368946,5.68E-06
0.3165,-1.796761999,-0.115368946,5.68E-06
0.31675,-1.796761999,-0.115368946,5.68E-06
0.317,-1.793111018,-0.111701857,5.68E-06
0.31725,-1.789460036,-0.111701857,5.68E-06
0.3175,-1.789460036,-0.111701857,5.68E-06
0.31775,-1.789460036,-0.111701857,5.68E-06
0.318,-1.785809055,-0.111701857,5.68E-06
0.31825,-1.785809055,-0.111701857,5.68E-06
0.3185,-1.782158073,-0.108034768,5.68E-06
0.31875,-1.782158073,-0.108034768,5.68E-06
0.319,-1.778507092,-0.108034768,5.68E-06
0.31925,-1.778507092,-0.108034768,5.68E-06
0.3195,-1.778507092,-0.104367678,5.68E-06
0.31975,-1.77485611,-0.104367678,5.68E-06
0.32,-1.77485611,-0.104367678,5.68E-06
0.32025,-1.771205129,-0.104367678,5.68E-06
0.3205,-1.767554147,-0.104367678,5.68E-06
0.32075,-1.767554147,-0.104367678,5.68E-06
0.321,-1.767554147,-0.100700589,5.68E-06
0.32125,-1.763903165,-0.100700589,5.68E-06
0.3215,-1.763903165,-0.100700589,5.68E-06
0.32175,-1.760252184,-0.0970335,5.68E-06
0.322,-1.760252184,-0.0970335,5.68E-06
0.32225,-1.760252184,-0.0970335,5.68E-06
0.3225,-1.756601202,-0.0970335,5.68E-06
0.32275,-1.752950221,-0.0970335,5.68E-06
0.323,-1.752950221,-0.0970335,5.68E-06
0.32325,-1.749299239,-0.0970335,5.68E-06
0.3235,-1.749299239,-0.09336641,5.68E-06
0.32375,-1.745648258,-0.09336641,5.68E-06
0.324,-1.745648258,-0.09336641,5.68E-06
0.32425,-1.745648258,-0.089699321,5.68E-06
0.3245,-1.741997276,-0.09336641,5.68E-06
0.32475,-1.741997276,-0.089699321,5.68E-06
0.325,-1.738346295,-0.089699321,5.68E-06
0.32525,-1.734695313,-0.089699321,5.68E-06
0.3255,-1.734695313,-0.086032232,5.68E-06
0.32575,-1.734695313,-0.086032232,5.68E-06
0.326,-1.731044331,-0.086032232,5.68E-06
0.32625,-1.731044331,-0.086032232,5.68E-06
0.3265,-1.72739335,-0.086032232,9.37E-06
0.32675,-1.72739335,-0.086032232,9.37E-06
0.327,-1.723742368,-0.086032232,9.37E-06
0.32725,-1.723742368,-0.082365142,9.37E-06
0.3275,-1.720091387,-0.082365142,9.37E-06
0.32775,-1.720091387,-0.082365142,9.37E-06
0.328,-1.716440405,-0.082365142,9.37E-06
0.32825,-1.716440405,-0.078698053,9.37E-06
0.3285,-1.712789424,-0.078698053,9.37E-06
0.32875,-1.712789424,-0.078698053,9.37E-06
0.329,-1.709138442,-0.078698053,9.37E-06
0.32925,-1.709138442,-0.075030964,1.31E-05
0.3295,-1.70548746,-0.075030964,1.31E-05
0.32975,-1.70548746,-0.075030964,1.31E-05
0.33,-1.701836479,-0.075030964,1.31E-05
0.33025,-1.701836479,-0.075030964,1.31E-05
0.3305,-1.698185497,-0.075030964,1.31E-05
0.33075,-1.698185497,-0.075030964,1.68E-05
0.331,-1.694534516,-0.075030964,1.31E-05
0.33125,-1.694534516,-0.075030964,1.68E-05
0.3315,-1.690883534,-0.075030964,1.68E-05
0.33175,-1.690883534,-0.071363874,1.68E-05
0.332,-1.687232553,-0.071363874,1.68E-05
0.33225,-1.687232553,-0.071363874,1.68E-05
0.3325,-1.683581571,-0.071363874,2.04E-05
0.33275,-1.683581571,-0.071363874,2.04E-05
0.333,-1.67993059,-0.067696785,2.04E-05
0.33325,-1.676279608,-0.067696785,2.41E-05
0.3335,-1.676279608,-0.067696785,2.41E-05
0.33375,-1.672628626,-0.067696785,2.41E-05
0.334,-1.672628626,-0.067696785,2.78E-05
0.33425,-1.668977645,-0.064029696,2.41E-05
0.3345,-1.668977645,-0.064029696,2.78E-05
0.33475,-1.665326663,-0.064029696,3.15E-05
0.335,-1.661675682,-0.064029696,3.15E-05
0.33525,-1.661675682,-0.064029696,3.15E-05
0.3355,-1.661675682,-0.060362606,3.52E-05
0.33575,-1.6580247,-0.064029696,3.52E-05
0.336,-1.6580247,-0.060362606,3.52E-05
0.33625,-1.654373719,-0.060362606,3.89E-05
0.3365,-1.654373719,-0.060362606,3.89E-05
0.33675,-1.650722737,-0.060362606,3.89E-05
0.337,-1.647071755,-0.056695517,4.26E-05
0.33725,-1.647071755,-0.056695517,4.26E-05
0.3375,-1.643420774,-0.056695517,4.63E-05
0.33775,-1.643420774,-0.056695517,4.63E-05
0.338,-1.639769792,-0.056695517,5.00E-05
0.33825,-1.636118811,-0.056695517,5.00E-05
0.3385,-1.636118811,-0.056695517,5.00E-05
0.33875,-1.632467829,-0.053028428,5.37E-05
0.339,-1.632467829,-0.053028428,5.37E-05
0.33925,-1.628816848,-0.053028428,5.74E-05
0.3395,-1.625165866,-0.053028428,5.74E-05
0.33975,-1.625165866,-0.053028428,5.74E-05
0.34,-1.621514885,-0.053028428,6.11E-05
0.34025,-1.621514885,-0.053028428,6.11E-05
0.3405,-1.617863903,-0.053028428,6.47E-05
0.34075,-1.617863903,-0.049361338,6.47E-05
0.341,-1.614212921,-0.049361338,6.84E-05
0.34125,-1.61056194,-0.049361338,6.84E-05
0.3415,-1.61056194,-0.049361338,6.84E-05
0.34175,-1.61056194,-0.049361338,7.21E-05
0.342,-1.603259977,-0.045694249,7.58E-05
0.34225,-1.603259977,-0.049361338,7.58E-05
0.3425,-1.603259977,-0.045694249,7.95E-05
0.34275,-1.599608995,-0.045694249,7.95E-05
0.343,-1.599608995,-0.045694249,8.32E-05
0.34325,-1.595958014,-0.045694249,8.32E-05
0.3435,-1.595958014,-0.045694249,8.69E-05
0.34375,-1.592307032,-0.04202716,8.69E-05
0.344,-1.588656051,-0.045694249,9.06E-05
0.34425,-1.588656051,-0.04202716,9.06E-05
0.3445,-1.588656051,-0.045694249,9.43E-05
0.34475,-1.585005069,-0.04202716,9.80E-05
0.345,-1.581354087,-0.04202716,9.80E-05
0.34525,-1.581354087,-0.04202716,0.000101666
0.3455,-1.577703106,-0.04202716,0.000101666
0.34575,-1.577703106,-0.04202716,0.000101666
0.346,-1.574052124,-0.04202716,0.000105358
0.34625,-1.574052124,-0.04202716,0.000109049
0.3465,-1.570401143,-0.03836007,0.000109049
0.34675,-1.566750161,-0.03836007,0.000109049
0.347,-1.566750161,-0.03836007,0.000112741
0.34725,-1.56309918,-0.03836007,0.000116433
0.3475,-1.56309918,-0.03836007,0.000116433
0.34775,-1.559448198,-0.03836007,0.000120124
0.348,-1.559448198,-0.03836007,0.000120124
0.34825,-1.555797216,-0.03836007,0.000123816
0.3485,-1.555797216,-0.03836007,0.000123816
0.34875,-1.552146235,-0.034692981,0.000127508
0.349,-1.548495253,-0.034692981,0.000131199
0.34925,-1.548495253,-0.034692981,0.000131199
0.3495,-1.544844272,-0.034692981,0.000134891
0.34975,-1.544844272,-0.034692981,0.000134891
0.35,-1.54119329,-0.034692981,0.000134891
0.35025,-1.54119329,-0.034692981,0.000138583
0.3505,-1.537542309,-0.034692981,0.000138583
0.35075,-1.533891327,-0.034692981,0.000142274
0.351,-1.533891327,-0.031025892,0.000145966
0.35125,-1.530240346,-0.031025892,0.000145966
0.3515,-1.526589364,-0.031025892,0.000149658
0.35175,-1.526589364,-0.031025892,0.000149658
0.352,-1.522938382,-0.031025892,0.000149658
0.35225,-1.522938382,-0.031025892,0.000153349
0.3525,-1.519287401,-0.031025892,0.000153349
0.35275,-1.515636419,-0.031025892,0.000157041
0.353,-1.515636419,-0.031025892,0.000157041
0.35325,-1.511985438,-0.031025892,0.000160732
0.3535,-1.511985438,-0.031025892,0.000164424
0.35375,-1.508334456,-0.031025892,0.000164424
0.354,-1.508334456,-0.031025892,0.000168116
0.35425,-1.504683475,-0.027358802,0.000168116
0.3545,-1.501032493,-0.027358802,0.000171807
0.35475,-1.501032493,-0.027358802,0.000171807
0.355,-1.497381512,-0.027358802,0.000175499
0.35525,-1.497381512,-0.027358802,0.000175499
0.3555,-1.49373053,-0.027358802,0.000179191
0.35575,-1.490079548,-0.027358802,0.000182882
0.356,-1.490079548,-0.027358802,0.000182882
0.35625,-1.486428567,-0.027358802,0.000186574
0.3565,-1.486428567,-0.027358802,0.000190266
0.35675,-1.482777585,-0.023691713,0.000190266
0.357,-1.482777585,-0.023691713,0.000193957
0.35725,-1.479126604,-0.023691713,0.000193957
0.3575,-1.475475622,-0.023691713,0.000197649
0.35775,-1.471824641,-0.023691713,0.000201341
0.358,-1.475475622,-0.023691713,0.000205032
0.35825,-1.471824641,-0.023691713,0.000205032
0.3585,-1.471824641,-0.023691713,0.000208724
0.35875,-1.468173659,-0.023691713,0.000208724
0.359,-1.464522677,-0.023691713,0.000212416
0.35925,-1.464522677,-0.023691713,0.000212416
0.3595,-1.460871696,-0.023691713,0.000216107
0.35975,-1.457220714,-0.020024624,0.000219799
0.36,-1.457220714,-0.023691713,0.000219799
0.36025,-1.453569733,-0.020024624,0.000223491
0.3605,-1.449918751,-0.020024624,0.000223491
0.36075,-1.449918751,-0.020024624,0.000227182
0.361,-1.44626777,-0.020024624,0.000230874
0.36125,-1.442616788,-0.020024624,0.000230874
0.3615,-1.442616788,-0.020024624,0.000234566
0.36175,-1.438965807,-0.020024624,0.000238257
0.362,-1.438965807,-0.020024624,0.000238257
0.36225,-1.435314825,-0.016357534,0.000241949
0.3625,-1.435314825,-0.016357534,0.000241949
0.36275,-1.431663843,-0.016357534,0.000245641
0.363,-1.428012862,-0.020024624,0.000249332
0.36325,-1.42436188,-0.020024624,0.000249332
0.3635,-1.42436188,-0.020024624,0.000253024
0.36375,-1.420710899,-0.020024624,0.000256716
0.364,-1.420710899,-0.020024624,0.000256716
0.36425,-1.417059917,-0.020024624,0.000260407
0.3645,-1.413408936,-0.016357534,0.000260407
0.36475,-1.413408936,-0.016357534,0.000264099
0.365,-1.409757954,-0.016357534,0.000267791
0.36525,-1.406106972,-0.016357534,0.000267791
0.3655,-1.406106972,-0.016357534,0.000271482
0.36575,-1.402455991,-0.016357534,0.000271482
0.366,-1.402455991,-0.016357534,0.000275174
0.36625,-1.398805009,-0.016357534,0.000278866
0.3665,-1.395154028,-0.016357534,0.000282557
0.36675,-1.395154028,-0.012690445,0.000286249
0.367,-1.391503046,-0.016357534,0.000286249
0.36725,-1.387852065,-0.016357534,0.000286249
0.3675,-1.387852065,-0.016357534,0.000289941
0.36775,-1.384201083,-0.016357534,0.000293632
0.368,-1.384201083,-0.016357534,0.000293632
0.36825,-1.380550102,-0.016357534,0.000297324
0.3685,-1.37689912,-0.012690445,0.000297324
0.36875,-1.373248138,-0.012690445,0.000301016
0.369,-1.373248138,-0.012690445,0.000304707
0.36925,-1.369597157,-0.012690445,0.000304707
0.3695,-1.369597157,-0.012690445,0.000308399
0.36975,-1.365946175,-0.012690445,0.000312091
0.37,-1.362295194,-0.012690445,0.000315782
0.37025,-1.358644212,-0.012690445,0.000315782
0.3705,-1.358644212,-0.012690445,0.000315782
0.37075,-1.358644212,-0.009023356,0.000319474
0.371,-1.354993231,-0.009023356,0.000323165
0.37125,-1.351342249,-0.009023356,0.000323165
0.3715,-1.347691268,-0.009023356,0.000326857
0.37175,-1.347691268,-0.009023356,0.000330549
0.372,-1.344040286,-0.012690445,0.00033424
0.37225,-1.344040286,-0.009023356,0.00033424
0.3725,-1.340389304,-0.009023356,0.000337932
0.37275,-1.340389304,-0.009023356,0.000341624
0.373,-1.336738323,-0.009023356,0.000341624
0.37325,-1.333087341,-0.009023356,0.000345315
0.3735,-1.32943636,-0.009023356,0.000345315
0.37375,-1.32943636,-0.009023356,0.000349007
0.374,-1.325785378,-0.009023356,0.000352699
0.37425,-1.322134397,-0.009023356,0.000352699
0.3745,-1.322134397,-0.009023356,0.00035639
0.37475,-1.318483415,-0.009023356,0.000360082
0.375,-1.318483415,-0.009023356,0.000360082
0.37525,-1.314832433,-0.009023356,0.000363774
0.3755,-1.311181452,-0.005356267,0.000363774
0.37575,-1.311181452,-0.009023356,0.000367465
0.376,-1.30753047,-0.009023356,0.000371157
0.37625,-1.30753047,-0.009023356,0.000371157
0.3765,-1.303879489,-0.009023356,0.000374849
0.37675,-1.300228507,-0.009023356,0.000374849
0.377,-1.296577526,-0.005356267,0.00037854
0.37725,-1.296577526,-0.005356267,0.00037854
0.3775,-1.292926544,-0.005356267,0.000382232
0.37775,-1.289275563,-0.005356267,0.000382232
0.378,-1.289275563,-0.005356267,0.000385924
0.37825,-1.285624581,-0.005356267,0.000389615
0.3785,-1.285624581,-0.005356267,0.000393307
0.37875,-1.281973599,-0.009023356,0.000393307
0.379,-1.278322618,-0.005356267,0.000396999
0.37925,-1.274671636,-0.005356267,0.00040069
0.3795,-1.274671636,-0.005356267,0.00040069
0.37975,-1.271020655,-0.005356267,0.000404382
0.38,-1.267369673,-0.005356267,0.000408074
0.38025,-1.267369673,-0.005356267,0.000408074
0.3805,-1.263718692,-0.005356267,0.000411765
0.38075,-1.263718692,-0.005356267,0.000415457
0.381,-1.26006771,-0.005356267,0.000415457
0.38125,-1.256416729,-0.005356267,0.000419149
0.3815,-1.256416729,-0.005356267,0.00042284
0.38175,-1.252765747,-0.005356267,0.00042284
0.382,-1.252765747,-0.005356267,0.000426532
0.38225,-1.249114765,-0.005356267,0.000426532
0.3825,-1.245463784,-0.005356267,0.000430224
0.38275,-1.241812802,-0.005356267,0.000433915
0.383,-1.241812802,-0.005356267,0.000433915
0.38325,-1.238161821,-0.005356267,0.000437607
0.3835,-1.234510839,-0.005356267,0.000441299
0.38375,-1.234510839,-0.005356267,0.000441299
0.384,-1.230859858,-0.005356267,0.00044499
0.38425,-1.230859858,-0.005356267,0.000448682
0.3845,-1.227208876,-0.005356267,0.000448682
0.38475,-1.223557894,-0.005356267,0.000452374
0.385,-1.219906913,-0.005356267,0.000452374
0.38525,-1.216255931,-0.005356267,0.000456065
0.3855,-1.216255931,-0.005356267,0.000459757
0.38575,-1.21260495,-0.005356267,0.000459757
0.386,-1.21260495,-0.005356267,0.00046714
0.38625,-1.208953968,-0.005356267,0.00046714
0.3865,-1.205302987,-0.005356267,0.00046714
0.38675,-1.201652005,-0.005356267,0.000470832
0.387,-1.201652005,-0.005356267,0.000470832
0.38725,-1.198001024,-0.005356267,0.000474523
0.3875,-1.194350042,-0.005356267,0.000478215
0.38775,-1.194350042,-0.005356267,0.000481907
0.388,-1.19069906,-0.001689177,0.000481907
0.38825,-1.187048079,-0.005356267,0.000485598
0.3885,-1.183397097,-0.001689177,0.00048929
0.38875,-1.183397097,-0.005356267,0.00048929
0.389,-1.179746116,-0.001689177,0.000492982
0.38925,-1.176095134,-0.001689177,0.000496673
0.3895,-1.176095134,-0.001689177,0.000496673
0.38975,-1.172444153,-0.001689177,0.000500365
0.39,-1.172444153,-0.001689177,0.000504057
0.39025,-1.168793171,-0.001689177,0.000504057
0.3905,-1.16514219,-0.001689177,0.000507748
0.39075,-1.16514219,-0.001689177,0.000507748
0.391,-1.161491208,-0.001689177,0.00051144
0.39125,-1.157840226,-0.001689177,0.000515132
0.3915,-1.154189245,-0.001689177,0.000515132
0.39175,-1.154189245,-0.001689177,0.000518823
0.392,-1.150538263,-0.001689177,0.000522515
0.39225,-1.146887282,-0.001689177,0.000522515
0.3925,-1.146887282,-0.001689177,0.000526207
0.39275,-1.1432363,-0.001689177,0.000529898
0.393,-1.139585319,-0.001689177,0.000529898
0.39325,-1.139585319,-0.001689177,0.00053359
0.3935,-1.135934337,-0.001689177,0.000537282
0.39375,-1.132283355,-0.001689177,0.000537282
0.394,-1.132283355,-0.001689177,0.000540973
0.39425,-1.128632374,-0.001689177,0.000544665
0.3945,-1.124981392,-0.001689177,0.000544665
0.39475,-1.124981392,-0.001689177,0.000548357
0.395,-1.121330411,-0.001689177,0.000552048
0.39525,-1.117679429,-0.001689177,0.000552048
0.3955,-1.117679429,-0.001689177,0.00055574
0.39575,-1.114028448,-0.001689177,0.00055574
0.396,-1.110377466,-0.001689177,0.000559432
0.39625,-1.110377466,-0.001689177,0.000563123
0.3965,-1.106726485,-0.001689177,0.000566815
0.39675,-1.103075503,-0.001689177,0.000566815
0.397,-1.103075503,-0.001689177,0.000570507
0.39725,-1.099424521,-0.001689177,0.000570507
0.3975,-1.099424521,-0.001689177,0.000574198
0.39775,-1.09577354,-0.001689177,0.00057789
0.398,-1.092122558,-0.001689177,0.000581582
0.39825,-1.088471577,-0.001689177,0.000581582
0.3985,-1.088471577,-0.001689177,0.000585273
0.39875,-1.084820595,-0.001689177,0.000588965
0.399,-1.081169614,-0.001689177,0.000588965
0.39925,-1.077518632,-0.001689177,0.000592657
0.3995,-1.077518632,-0.001689177,0.000596348
0.39975,-1.07386765,-0.001689177,0.000596348
0.4,-1.07386765,-0.001689177,0.00060004
0.40025,-1.070216669,-0.001689177,0.000603732
0.4005,-1.066565687,-0.001689177,0.000603732
0.40075,-1.062914706,-0.001689177,0.000607423
0.401,-1.062914706,-0.001689177,0.000607423
0.40125,-1.059263724,-0.001689177,0.000611115
0.4015,-1.059263724,-0.001689177,0.000611115
0.40175,-1.055612743,-0.001689177,0.000614807
0.402,-1.051961761,-0.001689177,0.000614807
0.40225,-1.051961761,-0.001689177,0.000618498
0.4025,-1.04831078,-0.001689177,0.00062219
0.40275,-1.044659798,-0.001689177,0.00062219
0.403,-1.044659798,-0.001689177,0.000625882
0.40325,-1.041008816,-0.001689177,0.000625882
0.4035,-1.041008816,-0.001689177,0.000633265
0.40375,-1.037357835,-0.001689177,0.000633265
0.404,-1.033706853,-0.001689177,0.000636956
0.40425,-1.030055872,-0.001689177,0.000636956
0.4045,-1.030055872,-0.001689177,0.000636956
0.40475,-1.02640489,-0.001689177,0.000640648
0.405,-1.022753909,-0.001689177,0.00064434
0.40525,-1.022753909,-0.001689177,0.000648031
0.4055,-1.019102927,-0.001689177,0.000648031
0.40575,-1.019102927,-0.001689177,0.000651723
0.406,-1.015451946,-0.001689177,0.000655415
0.40625,-1.011800964,-0.001689177,0.000655415
0.4065,-1.008149982,-0.001689177,0.000659106
0.40675,-1.008149982,-0.001689177,0.000662798
0.407,-1.004499001,-0.001689177,0.000662798
0.40725,-1.000848019,-0.001689177,0.00066649
0.4075,-0.997197038,-0.001689177,0.000670181
0.40775,-0.997197038,-0.001689177,0.000670181
0.408,-0.993546056,-0.001689177,0.000673873
0.40825,-0.993546056,-0.001689177,0.000677565
0.4085,-0.989895075,-0.001689177,0.000677565
0.40875,-0.986244093,-0.001689177,0.000681256
0.409,-0.986244093,-0.001689177,0.000681256
0.40925,-0.982593111,-0.001689177,0.00068864
0.4095,-0.97894213,-0.001689177,0.00068864
0.40975,-0.97894213,-0.001689177,0.00068864
0.41,-0.975291148,-0.001689177,0.000692331
0.41025,-0.971640167,-0.001689177,0.000692331
0.4105,-0.967989185,-0.001689177,0.000696023
0.41075,-0.967989185,-0.001689177,0.000699715
0.411,-0.964338204,-0.001689177,0.000699715
0.41125,-0.964338204,-0.001689177,0.000703406
0.4115,-0.960687222,-0.001689177,0.000707098
0.41175,-0.957036241,-0.001689177,0.000707098
0.412,-0.957036241,-0.001689177,0.00071079
0.41225,-0.953385259,-0.001689177,0.000714481
0.4125,-0.949734277,-0.001689177,0.000714481
0.41275,-0.946083296,-0.001689177,0.000718173
0.413,-0.942432314,-0.001689177,0.000721865
0.41325,-0.942432314,-0.001689177,0.000721865
0.4135,-0.938781333,-0.001689177,0.000725556
0.41375,-0.938781333,-0.001689177,0.000729248
0.414,-0.935130351,-0.001689177,0.000729248
0.41425,-0.93147937,-0.001689177,0.00073294
0.4145,-0.927828388,-0.001689177,0.000736631
0.41475,-0.927828388,-0.001689177,0.000736631
0.415,-0.924177407,-0.001689177,0.000740323
0.41525,-0.924177407,-0.001689177,0.000744015
0.4155,-0.920526425,-0.001689177,0.000744015
0.41575,-0.920526425,-0.001689177,0.000747706
0.416,-0.916875443,-0.001689177,0.000751398
0.41625,-0.913224462,0.001977912,0.000751398
0.4165,-0.913224462,0.001977912,0.00075509
0.41675,-0.90957348,0.001977912,0.000758781
0.417,-0.905922499,0.001977912,0.000758781
0.41725,-0.905922499,-0.001689177,0.000762473
0.4175,-0.902271517,-0.001689177,0.000766165
0.41775,-0.898620536,-0.001689177,0.000766165
0.418,-0.898620536,-0.001689177,0.000769856
0.41825,-0.894969554,0.001977912,0.000773548
0.4185,-0.894969554,-0.001689177,0.00077724
0.41875,-0.891318572,-0.001689177,0.00077724
0.419,-0.887667591,-0.001689177,0.000780931
0.41925,-0.884016609,0.001977912,0.000784623
0.4195,-0.884016609,-0.001689177,0.000784623
0.41975,-0.880365628,-0.001689177,0.000788314
0.42,-0.876714646,-0.001689177,0.000792006
0.42025,-0.876714646,-0.001689177,0.000795698
0.4205,-0.873063665,0.001977912,0.000795698
0.42075,-0.869412683,-0.001689177,0.000799389
0.421,-0.865761702,0.001977912,0.000799389
0.42125,-0.865761702,0.001977912,0.000803081
0.4215,-0.86211072,-0.001689177,0.000806773
0.42175,-0.86211072,-0.001689177,0.000810464
0.422,-0.858459738,-0.001689177,0.000810464
0.42225,-0.854808757,-0.001689177,0.000814156
0.4225,-0.851157775,-0.001689177,0.000817848
0.42275,-0.851157775,-0.001689177,0.000817848
0.423,-0.847506794,-0.001689177,0.000821539
0.42325,-0.843855812,0.001977912,0.000825231
0.4235,-0.843855812,0.001977912,0.000825231
0.42375,-0.840204831,0.001977912,0.000828923
0.424,-0.836553849,0.001977912,0.000828923
0.42425,-0.836553849,0.001977912,0.000832614
0.4245,-0.832902867,0.001977912,0.000836306
0.42475,-0.829251886,0.001977912,0.000836306
0.425,-0.829251886,0.001977912,0.000839998
0.42525,-0.825600904,0.001977912,0.000839998
0.4255,-0.821949923,0.001977912,0.000843689
0.42575,-0.821949923,0.001977912,0.000847381
0.426,-0.818298941,0.001977912,0.000847381
0.42625,-0.81464796,0.001977912,0.000851073
0.4265,-0.810996978,0.001977912,0.000854764
0.42675,-0.810996978,0.001977912,0.000854764
0.427,-0.807345997,0.001977912,0.000854764
0.42725,-0.803695015,0.001977912,0.000858456
0.4275,-0.803695015,0.001977912,0.000862148
0.42775,-0.800044033,0.001977912,0.000865839
0.428,-0.796393052,0.001977912,0.000865839
0.42825,-0.796393052,0.001977912,0.000869531
0.4285,-0.79274207,0.001977912,0.000873223
0.42875,-0.79274207,0.001977912,0.000873223
0.429,-0.789091089,0.001977912,0.000876914
0.42925,-0.785440107,0.001977912,0.000876914
0.4295,-0.781789126,0.001977912,0.000880606
0.42975,-0.781789126,0.001977912,0.000884298
0.43,-0.778138144,0.001977912,0.000887989
0.43025,-0.774487163,0.001977912,0.000887989
0.4305,-0.774487163,-0.001689177,0.000891681
0.43075,-0.770836181,0.001977912,0.000895373
0.431,-0.767185199,0.001977912,0.000899064
0.43125,-0.767185199,-0.001689177,0.000899064
0.4315,-0.763534218,0.001977912,0.000899064
0.43175,-0.759883236,0.001977912,0.000902756
0.432,-0.759883236,-0.001689177,0.000906448
0.43225,-0.756232255,0.001977912,0.000910139
0.4325,-0.752581273,0.001977912,0.000910139
0.43275,-0.752581273,0.001977912,0.000913831
0.433,-0.748930292,-0.001689177,0.000917523
0.43325,-0.74527931,0.001977912,0.000921214
0.4335,-0.741628328,0.001977912,0.000921214
0.43375,-0.741628328,0.001977912,0.000924906
0.434,-0.737977347,0.001977912,0.000924906
0.43425,-0.734326365,0.001977912,0.000928598
0.4345,-0.734326365,0.001977912,0.000932289
0.43475,-0.730675384,0.001977912,0.000935981
0.435,-0.727024402,0.001977912,0.000935981
0.43525,-0.727024402,0.001977912,0.000939673
0.4355,-0.723373421,0.001977912,0.000943364
0.43575,-0.719722439,0.001977912,0.000947056
0.436,-0.719722439,0.001977912,0.000947056
0.43625,-0.716071458,0.001977912,0.000947056
0.4365,-0.712420476,0.001977912,0.000950747
0.43675,-0.712420476,0.001977912,0.000954439
0.437,-0.708769494,0.001977912,0.000958131
0.43725,-0.705118513,0.001977912,0.000958131
0.4375,-0.705118513,0.001977912,0.000961822
0.43775,-0.701467531,0.001977912,0.000965514
0.438,-0.69781655,0.001977912,0.000965514
0.43825,-0.694165568,0.001977912,0.000969206
0.4385,-0.694165568,0.001977912,0.000972897
0.43875,-0.690514587,0.001977912,0.000976589
0.439,-0.686863605,0.001977912,0.000976589
0.43925,-0.683212624,0.001977912,0.000980281
0.4395,-0.683212624,0.001977912,0.000980281
0.43975,-0.679561642,0.001977912,0.000983972
0.44,-0.67591066,0.001977912,0.000987664
0.44025,-0.672259679,0.001977912,0.000991356
0.4405,-0.668608697,0.001977912,0.000991356
0.44075,-0.668608697,0.001977912,0.000991356
0.441,-0.664957716,0.001977912,0.000995047
0.44125,-0.664957716,0.001977912,0.000998739
0.4415,-0.661306734,0.001977912,0.000998739
0.44175,-0.657655753,0.001977912,0.001002431
0.442,-0.654004771,0.001977912,0.001006122
0.44225,-0.654004771,0.001977912,0.001009814
0.4425,-0.650353789,0.001977912,0.001009814
0.44275,-0.650353789,0.001977912,0.001013506
0.443,-0.646702808,0.001977912,0.001013506
0.44325,-0.643051826,0.001977912,0.001017197
0.4435,-0.639400845,0.001977912,0.001020889
0.44375,-0.639400845,0.001977912,0.001024581
0.444,-0.635749863,0.001977912,0.001028272
0.44425,-0.635749863,0.001977912,0.001028272
0.4445,-0.632098882,0.001977912,0.001031964
0.44475,-0.6284479,0.001977912,0.001031964
0.445,-0.624796919,0.001977912,0.001035656
0.44525,-0.624796919,0.001977912,0.001035656
0.4455,-0.621145937,0.001977912,0.001039347
0.44575,-0.617494955,0.001977912,0.001043039
0.446,-0.617494955,0.001977912,0.001046731
0.44625,-0.613843974,0.001977912,0.001046731
0.4465,-0.610192992,0.001977912,0.001050422
0.44675,-0.610192992,0.001977912,0.001054114
0.447,-0.606542011,0.001977912,0.001054114
0.44725,-0.602891029,0.001977912,0.001057806
0.4475,-0.599240048,0.001977912,0.001061497
0.44775,-0.599240048,0.001977912,0.001061497
0.448,-0.595589066,0.001977912,0.001065189
0.44825,-0.595589066,0.001977912,0.001068881
0.4485,-0.591938084,0.001977912,0.001072572
0.44875,-0.588287103,0.001977912,0.001072572
0.449,-0.584636121,0.001977912,0.001076264
0.44925,-0.584636121,0.001977912,0.001076264
0.4495,-0.58098514,0.001977912,0.001079956
0.44975,-0.577334158,0.001977912,0.001079956
0.45,-0.573683177,0.001977912,0.001083647
0.45025,-0.573683177,0.001977912,0.001087339
0.4505,-0.570032195,0.001977912,0.001087339
0.45075,-0.570032195,0.001977912,0.001091031
0.451,-0.566381214,-0.001689177,0.001091031
0.45125,-0.566381214,0.001977912,0.001094722
0.4515,-0.562730232,0.001977912,0.001098414
0.45175,-0.55907925,0.001977912,0.001098414
0.452,-0.555428269,0.001977912,0.001102105
0.45225,-0.551777287,0.001977912,0.001105797
0.4525,-0.551777287,0.001977912,0.001105797
0.45275,-0.548126306,0.001977912,0.001109489
0.453,-0.544475324,0.001977912,0.00111318
0.45325,-0.544475324,0.001977912,0.00111318
0.4535,-0.540824343,0.001977912,0.001116872
0.45375,-0.537173361,0.001977912,0.001116872
0.454,-0.537173361,0.001977912,0.001120564
0.45425,-0.53352238,0.001977912,0.001124255
0.4545,-0.529871398,0.001977912,0.001127947
0.45475,-0.529871398,0.001977912,0.001127947
0.455,-0.526220416,0.001977912,0.001131639
0.45525,-0.522569435,0.001977912,0.00113533
0.4555,-0.522569435,0.001977912,0.00113533
0.45575,-0.518918453,0.001977912,0.001139022
0.456,-0.515267472,0.001977912,0.001142714
0.45625,-0.51161649,0.001977912,0.001142714
0.4565,-0.51161649,0.001977912,0.001146405
0.45675,-0.507965509,0.001977912,0.001150097
0.457,-0.507965509,0.001977912,0.001153789
0.45725,-0.504314527,0.001977912,0.001153789
0.4575,-0.500663545,0.001977912,0.00115748
0.45775,-0.500663545,0.001977912,0.001161172
0.458,-0.497012564,0.001977912,0.001161172
0.45825,-0.493361582,0.001977912,0.001164864
0.4585,-0.489710601,0.001977912,0.001164864
0.45875,-0.489710601,0.001977912,0.001168555
0.459,-0.489710601,0.001977912,0.001172247
0.45925,-0.482408638,0.001977912,0.001172247
0.4595,-0.482408638,0.001977912,0.001175939
0.45975,-0.478757656,0.001977912,0.00117963
0.46,-0.475106675,0.001977912,0.001183322
0.46025,-0.475106675,0.001977912,0.001187014
0.4605,-0.471455693,0.001977912,0.001187014
0.46075,-0.467804711,0.001977912,0.001190705
0.461,-0.467804711,0.001977912,0.001190705
0.46125,-0.46415373,0.001977912,0.001194397
0.4615,-0.460502748,0.001977912,0.001194397
0.46175,-0.456851767,0.001977912,0.00120178
0.462,-0.456851767,0.001977912,0.00120178
0.46225,-0.453200785,0.001977912,0.001205472
0.4625,-0.449549804,0.001977912,0.001209164
0.46275,-0.449549804,0.001977912,0.001209164
0.463,-0.445898822,0.001977912,0.001209164
0.46325,-0.442247841,0.001977912,0.001212855
0.4635,-0.442247841,0.001977912,0.001216547
0.46375,-0.438596859,0.001977912,0.001216547
0.464,-0.434945877,0.001977912,0.001220239
0.46425,-0.434945877,0.001977912,0.00122393
0.4645,-0.431294896,0.001977912,0.001227622
0.46475,-0.427643914,0.001977912,0.001231314
0.465,-0.423992933,0.001977912,0.001231314
0.46525,-0.423992933,0.001977912,0.001235005
0.4655,-0.420341951,0.001977912,0.001235005
0.46575,-0.420341951,0.001977912,0.001238697
0.466,-0.41669097,0.001977912,0.001242389
0.46625,-0.413039988,0.001977912,0.00124608
0.4665,-0.413039988,0.001977912,0.00124608
0.46675,-0.409389006,0.001977912,0.001249772
0.467,-0.409389006,0.001977912,0.001249772
0.46725,-0.405738025,0.001977912,0.001253464
0.4675,-0.402087043,0.001977912,0.001253464
0.46775,-0.398436062,0.001977912,0.001257155
0.468,-0.398436062,0.001977912,0.001257155
0.46825,-0.39478508,0.001977912,0.001260847
0.4685,-0.391134099,0.001977912,0.001264538
0.46875,-0.387483117,0.001977912,0.001264538
0.469,-0.387483117,0.001977912,0.00126823
0.46925,-0.383832136,0.001977912,0.001271922
0.4695,-0.383832136,0.001977912,0.001275613
0.46975,-0.380181154,0.001977912,0.001275613
0.47,-0.376530172,0.001977912,0.001279305
0.47025,-0.372879191,0.001977912,0.001282997
0.4705,-0.372879191,0.001977912,0.001282997
0.47075,-0.369228209,0.005645001,0.001286688
0.471,-0.369228209,0.001977912,0.00129038
0.47125,-0.365577228,0.001977912,0.00129038
0.4715,-0.361926246,0.001977912,0.001294072
0.47175,-0.358275265,0.001977912,0.001297763
0.472,-0.354624283,0.001977912,0.001297763
0.47225,-0.354624283,0.001977912,0.001301455
0.4725,-0.350973302,0.001977912,0.001301455
0.47275,-0.350973302,0.001977912,0.001305147
0.473,-0.34732232,0.001977912,0.001308838
0.47325,-0.34732232,0.001977912,0.00131253
0.4735,-0.343671338,0.001977912,0.00131253
0.47375,-0.343671338,0.001977912,0.00131253
0.474,-0.340020357,0.001977912,0.001319913
0.47425,-0.336369375,0.001977912,0.001319913
0.4745,-0.332718394,0.001977912,0.001319913
0.47475,-0.332718394,0.001977912,0.001323605
0.475,-0.329067412,0.001977912,0.001327297
0.47525,-0.329067412,0.001977912,0.001327297
0.4755,-0.325416431,0.001977912,0.001330988
0.47575,-0.321765449,0.001977912,0.001330988
0.476,-0.321765449,0.001977912,0.00133468
0.47625,-0.318114467,0.001977912,0.001338372
0.4765,-0.314463486,0.001977912,0.001342063
0.47675,-0.310812504,0.001977912,0.001342063
0.477,-0.310812504,0.001977912,0.001345755
0.47725,-0.307161523,0.001977912,0.001349447
0.4775,-0.303510541,0.001977912,0.001349447
0.47775,-0.303510541,0.001977912,0.001353138
0.478,-0.29985956,0.001977912,0.00135683
0.47825,-0.296208578,0.001977912,0.00135683
0.4785,-0.296208578,0.001977912,0.001360522
0.47875,-0.292557597,0.001977912,0.001364213
0.479,-0.288906615,0.001977912,0.001364213
0.47925,-0.288906615,0.001977912,0.001367905
0.4795,-0.285255633,0.001977912,0.001371597
0.47975,-0.281604652,0.001977912,0.001371597
0.48,-0.281604652,0.001977912,0.001375288
0.48025,-0.27795367,0.001977912,0.00137898
0.4805,-0.274302689,0.001977912,0.001382672
0.48075,-0.270651707,-0.001689177,0.001382672
0.481,-0.270651707,0.001977912,0.001382672
0.48125,-0.267000726,0.001977912,0.001386363
0.4815,-0.263349744,0.001977912,0.001390055
0.48175,-0.263349744,0.001977912,0.001393747
0.482,-0.259698762,0.001977912,0.001393747
0.48225,-0.256047781,0.001977912,0.001397438
0.4825,-0.252396799,0.001977912,0.00140113
0.48275,-0.252396799,0.001977912,0.001404822
0.483,-0.248745818,0.001977912,0.001404822
0.48325,-0.245094836,0.001977912,0.001408513
0.4835,-0.241443855,0.001977912,0.001412205
0.48375,-0.241443855,0.001977912,0.001412205
0.484,-0.237792873,0.001977912,0.001415896
0.48425,-0.234141892,0.001977912,0.001419588
0.4845,-0.23049091,0.001977912,0.001419588
0.48475,-0.23049091,0.001977912,0.00142328
0.485,-0.226839928,0.001977912,0.001426971
0.48525,-0.223188947,0.001977912,0.001430663
0.4855,-0.223188947,0.001977912,0.001430663
0.48575,-0.219537965,0.001977912,0.001434355
0.486,-0.219537965,0.001977912,0.001434355
0.48625,-0.215886984,0.001977912,0.001438046
0.4865,-0.212236002,0.001977912,0.001441738
0.48675,-0.208585021,0.001977912,0.001441738
0.487,-0.208585021,0.001977912,0.00144543
0.48725,-0.204934039,0.001977912,0.001449121
0.4875,-0.201283058,0.001977912,0.001452813
0.48775,-0.197632076,0.001977912,0.001452813
0.488,-0.197632076,0.001977912,0.001456505
0.48825,-0.197632076,0.001977912,0.001456505
0.4885,-0.190330113,0.001977912,0.001463888
0.48875,-0.190330113,0.001977912,0.001463888
0.489,-0.186679131,0.001977912,0.00146758
0.48925,-0.186679131,0.001977912,0.001471271
0.4895,-0.18302815,0.001977912,0.001471271
0.48975,-0.18302815,0.001977912,0.001474963
0.49,-0.179377168,0.001977912,0.001474963
0.49025,-0.175726187,0.001977912,0.001478655
0.4905,-0.172075205,0.001977912,0.001482346
0.49075,-0.168424223,0.001977912,0.001482346
0.491,-0.168424223,0.001977912,0.001486038
0.49125,-0.164773242,0.001977912,0.001486038
0.4915,-0.164773242,0.001977912,0.00148973
0.49175,-0.16112226,0.001977912,0.001493421
0.492,-0.157471279,0.001977912,0.001497113
0.49225,-0.157471279,0.001977912,0.001497113
0.4925,-0.153820297,0.001977912,0.001500805
0.49275,-0.150169316,0.001977912,0.001504496
0.493,-0.150169316,0.001977912,0.001504496
0.49325,-0.146518334,0.001977912,0.001508188
0.4935,-0.142867353,0.001977912,0.00151188
0.49375,-0.142867353,0.001977912,0.001515571
0.494,-0.139216371,0.001977912,0.001515571
0.49425,-0.135565389,0.001977912,0.001519263
0.4945,-0.135565389,0.001977912,0.001522955
0.49475,-0.131914408,0.001977912,0.001522955
0.495,-0.128263426,0.001977912,0.001526646
0.49525,-0.128263426,0.001977912,0.001526646
0.4955,-0.124612445,0.001977912,0.001530338
0.49575,-0.120961463,0.001977912,0.00153403
0.496,-0.117310482,0.001977912,0.00153403
0.49625,-0.117310482,0.001977912,0.001537721
0.4965,-0.1136595,0.001977912,0.001541413
0.49675,-0.110008519,0.001977912,0.001541413
0.497,-0.110008519,0.001977912,0.001545105
0.49725,-0.106357537,0.001977912,0.001545105
0.4975,-0.102706555,0.001977912,0.001548796
0.49775,-0.102706555,0.001977912,0.001552488
0.498,-0.099055574,0.001977912,0.001552488
0.49825,-0.095404592,0.001977912,0.00155618
0.4985,-0.095404592,0.001977912,0.001559871
0.49875,-0.091753611,0.001977912,0.001559871
0.499,-0.088102629,0.001977912,0.001563563
0.49925,-0.084451648,0.001977912,0.001563563
0.4995,-0.084451648,0.001977912,0.001567255
0.49975,-0.080800666,0.001977912,0.001570946
0.5,-0.080800666,0.001977912,0.001570946
0.50025,-0.077149684,0.001977912,0.001574638
0.5005,-0.073498703,0.001977912,0.001578329
0.50075,-0.069847721,0.001977912,0.001578329
0.501,-0.069847721,0.001977912,0.001582021
0.50125,-0.06619674,0.001977912,0.001585713
0.5015,-0.062545758,0.001977912,0.001585713
0.50175,-0.062545758,0.001977912,0.001589404
0.502,-0.058894777,0.001977912,0.001593096
0.50225,-0.055243795,0.001977912,0.001596788
0.5025,-0.055243795,0.001977912,0.001596788
0.50275,-0.051592814,0.005645001,0.001600479
0.503,-0.051592814,0.001977912,0.001604171
0.50325,-0.047941832,0.001977912,0.001604171
0.5035,-0.047941832,0.001977912,0.001607863
0.50375,-0.04429085,0.001977912,0.001607863
0.504,-0.040639869,0.001977912,0.001611554
0.50425,-0.036988887,0.001977912,0.001615246
0.5045,-0.033337906,0.001977912,0.001618938
0.50475,-0.033337906,0.001977912,0.001618938
0.505,-0.029686924,0.001977912,0.001622629
0.50525,-0.026035943,0.001977912,0.001626321
0.5055,-0.026035943,0.001977912,0.001626321
0.50575,-0.022384961,0.001977912,0.001630013
0.506,-0.022384961,0.001977912,0.001633704
0.50625,-0.018733979,0.001977912,0.001633704
0.5065,-0.015082998,0.001977912,0.001637396
0.50675,-0.011432016,0.001977912,0.001641088
0.507,-0.011432016,0.005645001,0.001641088
0.50725,-0.007781035,0.001977912,0.001644779
0.5075,-0.004130053,0.001977912,0.001648471
0.50775,-0.004130053,0.001977912,0.001652163
0.508,-0.000479072,0.001977912,0.001652163
0.50825,0.00317191,0.005645001,0.001655854
0.5085,0.00317191,0.005645001,0.001655854
0.50875,0.006822891,0.001977912,0.001659546
0.509,0.010473873,0.005645001,0.001663238
0.50925,0.010473873,0.001977912,0.001663238
0.5095,0.014124855,0.005645001,0.001666929
0.50975,0.017775836,0.005645001,0.001670621
0.51,0.021426818,0.005645001,0.001674313
0.51025,0.021426818,0.001977912,0.001678004
0.5105,0.025077799,0.001977912,0.001678004
0.51075,0.028728781,0.001977912,0.001678004
0.511,0.032379762,0.001977912,0.001681696
0.51125,0.032379762,0.001977912,0.001685388
0.5115,0.036030744,0.001977912,0.001689079
0.51175,0.039681725,0.005645001,0.001692771
0.512,0.039681725,0.005645001,0.001692771
0.51225,0.043332707,0.001977912,0.001696463
0.5125,0.046983689,0.005645001,0.001700154
0.51275,0.046983689,0.005645001,0.001700154
0.513,0.05063467,0.001977912,0.001703846
0.51325,0.054285652,0.005645001,0.001707538
0.5135,0.054285652,0.001977912,0.001707538
0.51375,0.057936633,0.001977912,0.001711229
0.514,0.061587615,0.001977912,0.001714921
0.51425,0.061587615,0.001977912,0.001714921
0.5145,0.065238596,0.001977912,0.001718613
0.51475,0.068889578,0.001977912,0.001718613
0.515,0.068889578,0.001977912,0.001722304
0.51525,0.07254056,0.001977912,0.001725996
0.5155,0.076191541,0.001977912,0.001729687
0.51575,0.076191541,0.005645001,0.001729687
0.516,0.079842523,0.005645001,0.001733379
0.51625,0.083493504,0.005645001,0.001737071
0.5165,0.083493504,0.005645001,0.001737071
0.51675,0.087144486,0.005645001,0.001740762
0.517,0.090795467,0.001977912,0.001744454
0.51725,0.094446449,0.005645001,0.001744454
0.5175,0.094446449,0.005645001,0.001748146
0.51775,0.09809743,0.005645001,0.001751837
0.518,0.101748412,0.005645001,0.001755529
0.51825,0.101748412,0.005645001,0.001755529
0.5185,0.105399394,0.005645001,0.001759221
0.51875,0.109050375,0.001977912,0.001762912
0.519,0.109050375,0.001977912,0.001762912
0.51925,0.112701357,0.001977912,0.001766604
0.5195,0.116352338,0.005645001,0.001770296
0.51975,0.116352338,0.005645001,0.001770296
0.52,0.12000332,0.005645001,0.001773987
0.52025,0.123654301,0.005645001,0.001777679
0.5205,0.123654301,0.001977912,0.001777679
0.52075,0.127305283,0.005645001,0.001781371
0.521,0.130956264,0.001977912,0.001785062
0.52125,0.134607246,0.005645001,0.001785062
0.5215,0.134607246,0.005645001,0.001788754
0.52175,0.138258228,0.001977912,0.001788754
0.522,0.138258228,0.005645001,0.001788754
0.52225,0.141909209,0.005645001,0.001792446
0.5225,0.145560191,0.005645001,0.001796137
0.52275,0.149211172,0.005645001,0.001799829
0.523,0.149211172,0.001977912,0.001799829
0.52325,0.152862154,0.005645001,0.001803521
0.5235,0.156513135,0.005645001,0.001807212
0.52375,0.156513135,0.001977912,0.001810904
0.524,0.160164117,0.001977912,0.001810904
0.52425,0.163815099,0.001977912,0.001814596
0.5245,0.163815099,0.005645001,0.001814596
0.52475,0.16746608,0.005645001,0.001818287
0.525,0.171117062,0.005645001,0.001818287
0.52525,0.171117062,0.001977912,0.001821979
0.5255,0.174768043,0.001977912,0.001825671
0.52575,0.178419025,0.005645001,0.001825671
0.526,0.178419025,0.001977912,0.001829362
0.52625,0.182070006,0.001977912,0.001829362
0.5265,0.185720988,0.005645001,0.001833054
0.52675,0.189371969,0.001977912,0.001836746
0.527,0.189371969,0.001977912,0.001836746
0.52725,0.193022951,0.001977912,0.001840437
0.5275,0.196673933,0.005645001,0.001844129
0.52775,0.196673933,0.001977912,0.001847821
0.528,0.200324914,0.001977912,0.001847821
0.52825,0.203975896,0.001977912,0.001851512
0.5285,0.207626877,0.005645001,0.001855204
0.52875,0.207626877,0.001977912,0.001858896
0.529,0.211277859,0.005645001,0.001858896
0.52925,0.21492884,0.001977912,0.001862587
0.5295,0.21492884,0.001977912,0.001862587
0.52975,0.218579822,0.005645001,0.001866279
0.53,0.218579822,0.005645001,0.001869971
0.53025,0.222230803,0.001977912,0.001873662
0.5305,0.225881785,0.005645001,0.001873662
0.53075,0.225881785,0.005645001,0.001877354
0.531,0.229532767,0.001977912,0.001881046
0.53125,0.229532767,0.005645001,0.001881046
0.5315,0.233183748,0.001977912,0.001884737
0.53175,0.23683473,0.005645001,0.001888429
0.532,0.240485711,0.005645001,0.00189212
0.53225,0.240485711,0.005645001,0.00189212
0.5325,0.244136693,0.005645001,0.001895812
0.53275,0.244136693,0.001977912,0.001899504
0.533,0.251438656,0.005645001,0.001899504
0.53325,0.251438656,0.001977912,0.001903195
0.5335,0.255089638,0.005645001,0.001903195
0.53375,0.255089638,0.005645001,0.001906887
0.534,0.258740619,0.005645001,0.001910579
0.53425,0.262391601,0.005645001,0.001910579
0.5345,0.262391601,0.001977912,0.00191427
0.53475,0.266042582,0.001977912,0.001917962
0.535,0.269693564,0.005645001,0.001921654
0.53525,0.273344545,0.005645001,0.001921654
0.5355,0.276995527,0.005645001,0.001925345
0.53575,0.276995527,0.005645001,0.001925345
0.536,0.280646508,0.005645001,0.001929037
0.53625,0.280646508,0.005645001,0.001932729
0.5365,0.28429749,0.005645001,0.00193642
0.53675,0.287948472,0.005645001,0.00193642
0.537,0.287948472,0.005645001,0.001940112
0.53725,0.291599453,0.005645001,0.001943804
0.5375,0.295250435,0.005645001,0.001943804
0.53775,0.295250435,0.001977912,0.001947495
0.538,0.298901416,0.001977912,0.001951187
0.53825,0.302552398,0.005645001,0.001951187
0.5385,0.302552398,0.005645001,0.001954879
0.53875,0.306203379,0.005645001,0.00195857
0.539,0.309854361,0.005645001,0.00195857
0.53925,0.313505343,0.005645001,0.001962262
0.5395,0.313505343,0.005645001,0.001965954
0.53975,0.317156324,0.005645001,0.001965954
0.54,0.320807306,0.005645001,0.001969645
0.54025,0.320807306,0.001977912,0.001973337
0.5405,0.324458287,0.001977912,0.001977029
0.54075,0.324458287,0.001977912,0.001977029
0.541,0.328109269,0.001977912,0.00198072
0.54125,0.33176025,0.005645001,0.001984412
0.5415,0.335411232,0.001977912,0.001988104
0.54175,0.335411232,0.005645001,0.001988104
0.542,0.339062213,0.005645001,0.001991795
0.54225,0.342713195,0.005645001,0.001991795
0.5425,0.342713195,0.005645001,0.001995487
0.54275,0.346364177,0.001977912,0.001999179
0.543,0.350015158,0.001977912,0.001999179
0.54325,0.35366614,0.005645001,0.00200287
0.5435,0.35366614,0.005645001,0.002006562
0.54375,0.357317121,0.001977912,0.002006562
0.544,0.357317121,0.001977912,0.002006562
0.54425,0.360968103,0.001977912,0.002010254
0.5445,0.364619084,0.005645001,0.002013945
0.54475,0.364619084,0.005645001,0.002013945
0.545,0.368270066,0.005645001,0.002017637
0.54525,0.371921047,0.005645001,0.002021329
0.5455,0.375572029,0.005645001,0.002021329
0.54575,0.375572029,0.005645001,0.00202502
0.546,0.379223011,0.005645001,0.002028712
0.54625,0.382873992,0.001977912,0.002032404
0.5465,0.382873992,0.005645001,0.002032404
0.54675,0.386524974,0.005645001,0.002036095
0.547,0.390175955,0.001977912,0.002036095
0.54725,0.393826937,0.001977912,0.002039787
0.5475,0.393826937,0.001977912,0.002043478
0.54775,0.397477918,0.005645001,0.00204717
0.548,0.4011289,0.005645001,0.00204717
0.54825,0.4011289,0.005645001,0.002050862
0.5485,0.404779882,0.001977912,0.002054553
0.54875,0.408430863,0.005645001,0.002054553
0.549,0.408430863,0.005645001,0.002058245
0.54925,0.412081845,0.005645001,0.002061937
0.5495,0.415732826,0.005645001,0.002061937
0.54975,0.415732826,0.005645001,0.002065628
0.55,0.419383808,0.005645001,0.00206932
0.55025,0.423034789,0.001977912,0.00206932
0.5505,0.423034789,0.005645001,0.002073012
0.55075,0.426685771,0.005645001,0.002076703
0.551,0.426685771,0.005645001,0.002076703
0.55125,0.430336752,0.005645001,0.002080395
0.5515,0.433987734,0.005645001,0.002084087
0.55175,0.437638716,0.005645001,0.002087778
0.552,0.441289697,0.005645001,0.002087778
0.55225,0.441289697,0.005645001,0.00209147
0.5525,0.444940679,0.005645001,0.00209147
0.55275,0.44859166,0.005645001,0.002095162
0.553,0.44859166,0.005645001,0.002098853
0.55325,0.452242642,0.005645001,0.002102545
0.5535,0.452242642,0.005645001,0.002102545
0.55375,0.455893623,0.005645001,0.002106237
0.554,0.459544605,0.005645001,0.002106237
0.55425,0.463195586,0.005645001,0.002109928
0.5545,0.463195586,0.005645001,0.00211362
0.55475,0.466846568,0.005645001,0.002117312
0.555,0.47049755,0.005645001,0.002117312
0.55525,0.47049755,0.005645001,0.002121003
0.5555,0.474148531,0.005645001,0.002124695
0.55575,0.477799513,0.005645001,0.002124695
0.556,0.481450494,0.005645001,0.002128387
0.55625,0.481450494,0.005645001,0.002132078
0.5565,0.485101476,0.005645001,0.002132078
0.55675,0.488752457,0.005645001,0.00213577
0.557,0.492403439,0.005645001,0.002139462
0.55725,0.492403439,0.005645001,0.002139462
0.5575,0.496054421,0.005645001,0.002143153
0.55775,0.496054421,0.005645001,0.002143153
0.558,0.499705402,0.005645001,0.002146845
0.55825,0.499705402,0.005645001,0.002150537
0.5585,0.503356384,0.005645001,0.002150537
0.55875,0.507007365,0.005645001,0.002154228
0.559,0.510658347,0.005645001,0.00215792
0.55925,0.510658347,0.005645001,0.002161612
0.5595,0.514309328,0.005645001,0.002161612
0.55975,0.51796031,0.005645001,0.002165303
0.56,0.521611291,0.005645001,0.002168995
0.56025,0.521611291,0.005645001,0.002168995
0.5605,0.525262273,0.005645001,0.002172687
0.56075,0.525262273,0.005645001,0.002176378
0.561,0.528913255,0.005645001,0.002176378
0.56125,0.532564236,0.005645001,0.00218007
0.5615,0.532564236,0.005645001,0.002183762
0.56175,0.536215218,0.005645001,0.002183762
0.562,0.539866199,0.005645001,0.002187453
0.56225,0.539866199,0.005645001,0.002191145
0.5625,0.543517181,0.005645001,0.002191145
0.56275,0.543517181,0.005645001,0.002194837
0.563,0.547168162,0.009312091,0.002198528
0.56325,0.550819144,0.009312091,0.00220222
0.5635,0.550819144,0.009312091,0.00220222
0.56375,0.554470126,0.009312091,0.002209603
0.564,0.554470126,0.009312091,0.002209603
0.56425,0.558121107,0.009312091,0.002213295
0.5645,0.561772089,0.009312091,0.002216986
0.56475,0.561772089,0.009312091,0.002220678
0.565,0.56542307,0.009312091,0.002220678
0.56525,0.56542307,0.009312091,0.00222437
0.5655,0.569074052,0.009312091,0.00222437
0.56575,0.569074052,0.01297918,0.002228061
0.566,0.572725033,0.01297918,0.002231753
0.56625,0.572725033,0.01297918,0.002231753
0.5665,0.576376015,0.01297918,0.002235445
0.56675,0.580026996,0.01297918,0.002239136
0.567,0.580026996,0.01297918,0.002239136
0.56725,0.583677978,0.016646269,0.002242828
0.5675,0.583677978,0.01297918,0.002242828
0.56775,0.58732896,0.016646269,0.00224652
0.568,0.58732896,0.016646269,0.002250211
0.56825,0.590979941,0.016646269,0.002250211
0.5685,0.590979941,0.016646269,0.002253903
0.56875,0.590979941,0.016646269,0.002257595
0.569,0.594630923,0.020313359,0.002257595
0.56925,0.594630923,0.020313359,0.002261286
0.5695,0.598281904,0.020313359,0.002264978
0.56975,0.598281904,0.023980448,0.00226867
0.57,0.601932886,0.023980448,0.00226867
0.57025,0.601932886,0.023980448,0.002272361
0.5705,0.605583867,0.027647537,0.002272361
0.57075,0.605583867,0.023980448,0.002276053
0.571,0.605583867,0.027647537,0.002279745
0.57125,0.605583867,0.031314627,0.002279745
0.5715,0.605583867,0.031314627,0.002283436
0.57175,0.609234849,0.031314627,0.002283436
0.572,0.609234849,0.034981716,0.002287128
0.57225,0.61288583,0.034981716,0.00229082
0.5725,0.61288583,0.034981716,0.002294511
0.57275,0.616536812,0.038648805,0.002294511
0.573,0.616536812,0.038648805,0.002298203
0.57325,0.616536812,0.038648805,0.002301895
0.5735,0.616536812,0.042315895,0.002301895
0.57375,0.620187794,0.042315895,0.002305586
0.574,0.620187794,0.045982984,0.002309278
0.57425,0.620187794,0.045982984,0.00231297
0.5745,0.620187794,0.049650073,0.00231297
0.57475,0.623838775,0.049650073,0.002316661
0.575,0.623838775,0.049650073,0.002320353
0.57525,0.623838775,0.053317163,0.002320353
0.5755,0.623838775,0.053317163,0.002324045
0.57575,0.627489757,0.056984252,0.002324045
0.576,0.627489757,0.056984252,0.002327736
0.57625,0.627489757,0.056984252,0.002331428
0.5765,0.627489757,0.060651341,0.002331428
0.57675,0.631140738,0.060651341,0.00233512
0.577,0.631140738,0.064318431,0.002338811
0.57725,0.631140738,0.064318431,0.002342503
0.5775,0.631140738,0.06798552,0.002342503
0.57775,0.631140738,0.06798552,0.002346195
0.578,0.63479172,0.06798552,0.002349886
0.57825,0.63479172,0.071652609,0.002353578
0.5785,0.63479172,0.075319699,0.002353578
0.57875,0.63479172,0.075319699,0.002357269
0.579,0.63479172,0.078986788,0.002360961
0.57925,0.638442701,0.078986788,0.002360961
0.5795,0.638442701,0.082653877,0.002364653
0.57975,0.638442701,0.082653877,0.002368344
0.58,0.638442701,0.086320967,0.002372036
0.58025,0.638442701,0.086320967,0.002372036
0.5805,0.638442701,0.089988056,0.002375728
0.58075,0.642093683,0.089988056,0.002375728
0.581,0.642093683,0.093655145,0.002379419
0.58125,0.642093683,0.097322235,0.002383111
0.5815,0.642093683,0.097322235,0.002383111
0.58175,0.642093683,0.100989324,0.002386803
0.582,0.645744665,0.100989324,0.002390494
0.58225,0.645744665,0.100989324,0.002386803
0.5825,0.645744665,0.104656413,0.002394186
0.58275,0.645744665,0.108323503,0.002394186
0.583,0.645744665,0.108323503,0.002397878
0.58325,0.645744665,0.108323503,0.002397878
0.5835,0.645744665,0.111990592,0.002401569
0.58375,0.645744665,0.115657681,0.002405261
0.584,0.645744665,0.115657681,0.002405261
0.58425,0.649395646,0.119324771,0.002408953
0.5845,0.649395646,0.119324771,0.002412644
0.58475,0.649395646,0.12299186,0.002416336
0.585,0.649395646,0.12299186,0.002416336
0.58525,0.649395646,0.126658949,0.002420028
0.5855,0.649395646,0.130326038,0.002420028
0.58575,0.649395646,0.130326038,0.002423719
0.586,0.649395646,0.133993128,0.002427411
0.58625,0.649395646,0.133993128,0.002427411
0.5865,0.653046628,0.133993128,0.002431103
0.58675,0.653046628,0.137660217,0.002434794
0.587,0.653046628,0.137660217,0.002434794
0.58725,0.653046628,0.141327306,0.002438486
0.5875,0.653046628,0.144994396,0.002442178
0.58775,0.653046628,0.144994396,0.002442178
0.588,0.653046628,0.148661485,0.002445869
0.58825,0.653046628,0.148661485,0.002449561
0.5885,0.653046628,0.148661485,0.002453253
0.58875,0.656697609,0.152328574,0.002453253
0.589,0.656697609,0.152328574,0.002456944
0.58925,0.656697609,0.155995664,0.002460636
0.5895,0.656697609,0.155995664,0.002460636
0.58975,0.656697609,0.159662753,0.002464328
0.59,0.656697609,0.163329842,0.002464328
0.59025,0.656697609,0.163329842,0.002468019
0.5905,0.656697609,0.166996932,0.002471711
0.59075,0.656697609,0.166996932,0.002471711
0.591,0.656697609,0.170664021,0.002475403
0.59125,0.656697609,0.170664021,0.002479094
0.5915,0.660348591,0.17433111,0.002479094
0.59175,0.660348591,0.17433111,0.002482786
0.592,0.660348591,0.1779982,0.002486478
0.59225,0.660348591,0.181665289,0.002486478
0.5925,0.660348591,0.181665289,0.002490169
0.59275,0.660348591,0.185332378,0.002493861
0.593,0.660348591,0.188999468,0.002493861
0.59325,0.660348591,0.188999468,0.002497553
0.5935,0.660348591,0.192666557,0.002497553
0.59375,0.660348591,0.192666557,0.002501244
0.594,0.663999572,0.196333646,0.002501244
0.59425,0.663999572,0.200000736,0.002504936
0.5945,0.663999572,0.203667825,0.002504936
0.59475,0.660348591,0.203667825,0.002508628
0.595,0.663999572,0.207334914,0.002512319
0.59525,0.663999572,0.207334914,0.002516011
0.5955,0.660348591,0.211002004,0.002516011
0.59575,0.663999572,0.211002004,0.002519702
0.596,0.663999572,0.214669093,0.002523394
0.59625,0.663999572,0.218336182,0.002523394
0.5965,0.663999572,0.218336182,0.002527086
0.59675,0.663999572,0.222003272,0.002530777
0.597,0.663999572,0.222003272,0.002534469
0.59725,0.667650554,0.225670361,0.002538161
0.5975,0.667650554,0.22933745,0.002538161
0.59775,0.667650554,0.22933745,0.002541852
0.598,0.667650554,0.23300454,0.002541852
0.59825,0.667650554,0.236671629,0.002545544
0.5985,0.667650554,0.236671629,0.002549236
0.59875,0.667650554,0.240338718,0.002549236
0.599,0.667650554,0.240338718,0.002552927
0.59925,0.667650554,0.244005808,0.002556619
0.5995,0.667650554,0.247672897,0.002560311
0.59975,0.667650554,0.247672897,0.002560311
0.6,0.667650554,0.251339986,0.002564002
0.60025,0.667650554,0.255007076,0.002564002
0.6005,0.667650554,0.255007076,0.002567694
0.60075,0.667650554,0.258674165,0.002571386
0.601,0.671301535,0.258674165,0.002571386
0.60125,0.671301535,0.262341254,0.002578769
0.6015,0.671301535,0.266008344,0.002578769
0.60175,0.671301535,0.266008344,0.002582461
0.602,0.671301535,0.269675433,0.002582461
0.60225,0.671301535,0.269675433,0.002586152
0.6025,0.671301535,0.273342522,0.002589844
0.60275,0.671301535,0.277009611,0.002593536
0.603,0.671301535,0.280676701,0.002593536
0.60325,0.671301535,0.28434379,0.002597227
0.6035,0.671301535,0.28434379,0.002597227
0.60375,0.671301535,0.28434379,0.002600919
0.604,0.674952517,0.288010879,0.002604611
0.60425,0.671301535,0.291677969,0.002608302
0.6045,0.671301535,0.291677969,0.002608302
0.60475,0.674952517,0.295345058,0.002611994
0.605,0.674952517,0.295345058,0.002615686
0.60525,0.674952517,0.299012147,0.002619377
0.6055,0.674952517,0.302679237,0.002619377
0.60575,0.674952517,0.302679237,0.002623069
0.606,0.674952517,0.306346326,0.002626761
0.60625,0.674952517,0.310013415,0.002626761
0.6065,0.674952517,0.313680505,0.002630452
0.60675,0.674952517,0.313680505,0.002630452
0.607,0.674952517,0.313680505,0.002637836
0.60725,0.674952517,0.317347594,0.002637836
0.6075,0.674952517,0.321014683,0.002641527
0.60775,0.674952517,0.321014683,0.002641527
0.608,0.674952517,0.324681773,0.002645219
0.60825,0.674952517,0.328348862,0.002648911
0.6085,0.678603499,0.332015951,0.002648911
0.60875,0.674952517,0.332015951,0.002652602
0.609,0.678603499,0.335683041,0.002656294
0.60925,0.674952517,0.33935013,0.002659986
0.6095,0.678603499,0.33935013,0.002659986
0.60975,0.678603499,0.343017219,0.002663677
0.61,0.674952517,0.343017219,0.002663677
0.61025,0.678603499,0.346684309,0.002667369
0.6105,0.678603499,0.350351398,0.00267106
0.61075,0.678603499,0.350351398,0.00267106
0.611,0.678603499,0.354018487,0.002678444
0.61125,0.678603499,0.357685577,0.002678444
0.6115,0.678603499,0.357685577,0.002682135
0.61175,0.678603499,0.361352666,0.002682135
0.612,0.678603499,0.361352666,0.002685827
0.61225,0.68225448,0.365019755,0.002689519
0.6125,0.68225448,0.368686845,0.002689519
0.61275,0.678603499,0.368686845,0.00269321
0.613,0.678603499,0.372353934,0.00269321
0.61325,0.678603499,0.372353934,0.002696902
0.6135,0.68225448,0.376021023,0.002700594
0.61375,0.68225448,0.376021023,0.002700594
0.614,0.68225448,0.379688113,0.002707977
0.61425,0.68225448,0.379688113,0.002707977
0.6145,0.68225448,0.383355202,0.002707977
0.61475,0.68225448,0.387022291,0.002711669
0.615,0.68225448,0.390689381,0.00271536
0.61525,0.68225448,0.390689381,0.002719052
0.6155,0.68225448,0.39435647,0.002719052
0.61575,0.68225448,0.398023559,0.002722744
0.616,0.68225448,0.398023559,0.002722744
0.61625,0.68225448,0.401690649,0.002726435
0.6165,0.68225448,0.405357738,0.002730127
0.61675,0.685905462,0.405357738,0.002730127
0.617,0.68225448,0.409024827,0.002733819
0.61725,0.68225448,0.412691916,0.002733819
0.6175,0.68225448,0.412691916,0.00273751
0.61775,0.685905462,0.416359006,0.002741202
0.618,0.68225448,0.420026095,0.002744894
0.61825,0.68225448,0.420026095,0.002744894
0.6185,0.685905462,0.423693184,0.002748585
0.61875,0.685905462,0.423693184,0.002752277
0.619,0.685905462,0.427360274,0.002752277
0.61925,0.685905462,0.431027363,0.002755969
0.6195,0.685905462,0.431027363,0.00275966
0.61975,0.685905462,0.434694452,0.002763352
0.62,0.685905462,0.438361542,0.002763352
0.62025,0.685905462,0.438361542,0.002767044
0.6205,0.685905462,0.442028631,0.002767044
0.62075,0.685905462,0.44569572,0.002770735
0.621,0.685905462,0.44569572,0.002774427
0.62125,0.685905462,0.44936281,0.002774427
0.6215,0.685905462,0.44936281,0.002778119
0.62175,0.685905462,0.453029899,0.00278181
0.622,0.685905462,0.456696988,0.002785502
0.62225,0.685905462,0.456696988,0.002785502
0.6225,0.685905462,0.464031167,0.002789194
0.62275,0.685905462,0.464031167,0.002789194
0.623,0.685905462,0.464031167,0.002792885
0.62325,0.685905462,0.467698256,0.002796577
0.6235,0.685905462,0.467698256,0.002800269
0.62375,0.685905462,0.471365346,0.002800269
0.624,0.685905462,0.475032435,0.00280396
0.62425,0.685905462,0.478699524,0.002807652
0.6245,0.685905462,0.478699524,0.002807652
0.62475,0.689556443,0.482366614,0.002811344
0.625,0.685905462,0.486033703,0.002815035
0.62525,0.689556443,0.486033703,0.002815035
0.6255,0.689556443,0.489700792,0.002822419
0.62575,0.689556443,0.493367882,0.002822419
0.626,0.689556443,0.493367882,0.00282611
0.62625,0.685905462,0.497034971,0.00282611
0.6265,0.689556443,0.50070206,0.002829802
0.62675,0.689556443,0.50070206,0.002833493
0.627,0.689556443,0.50436915,0.002833493
0.62725,0.685905462,0.50436915,0.002837185
0.6275,0.689556443,0.508036239,0.002840877
0.62775,0.689556443,0.511703328,0.002844568
0.628,0.689556443,0.511703328,0.002844568
0.62825,0.689556443,0.515370418,0.002844568
0.6285,0.689556443,0.519037507,0.00284826
0.62875,0.689556443,0.519037507,0.002851952
0.629,0.689556443,0.522704596,0.002855643
0.62925,0.689556443,0.526371686,0.002855643
0.6295,0.689556443,0.526371686,0.002859335
0.62975,0.689556443,0.530038775,0.002863027
0.63,0.689556443,0.533705864,0.002863027
0.63025,0.689556443,0.533705864,0.002866718
0.6305,0.689556443,0.537372954,0.002866718
0.63075,0.689556443,0.541040043,0.00287041
0.631,0.689556443,0.541040043,0.002874102
0.63125,0.689556443,0.544707132,0.002877793
0.6315,0.689556443,0.548374222,0.002877793
0.63175,0.693207425,0.548374222,0.002881485
0.632,0.693207425,0.552041311,0.002885177
0.63225,0.689556443,0.552041311,0.002888868
0.6325,0.693207425,0.5557084,0.002888868
0.63275,0.693207425,0.559375489,0.00289256
0.633,0.693207425,0.563042579,0.00289256
0.63325,0.693207425,0.563042579,0.002896252
0.6335,0.693207425,0.566709668,0.002899943
0.63375,0.693207425,0.566709668,0.002903635
0.634,0.693207425,0.570376757,0.002903635
0.63425,0.693207425,0.574043847,0.002907327
0.6345,0.693207425,0.577710936,0.002911018
0.63475,0.693207425,0.577710936,0.002911018
0.635,0.693207425,0.581378025,0.00291471
0.63525,0.693207425,0.585045115,0.00291471
0.6355,0.693207425,0.585045115,0.002918402
0.63575,0.693207425,0.588712204,0.002922093
0.636,0.693207425,0.592379293,0.002922093
0.63625,0.693207425,0.592379293,0.002925785
0.6365,0.693207425,0.596046383,0.002929477
0.63675,0.693207425,0.599713472,0.002933168
0.637,0.693207425,0.599713472,0.002933168
0.63725,0.693207425,0.603380561,0.00293686
0.6375,0.693207425,0.603380561,0.002940552
0.63775,0.693207425,0.607047651,0.002944243
0.638,0.693207425,0.607047651,0.002947935
0.63825,0.693207425,0.61071474,0.002947935
0.6385,0.693207425,0.61071474,0.002951627
0.63875,0.693207425,0.614381829,0.002951627
0.639,0.696858406,0.618048919,0.002955318
0.63925,0.693207425,0.618048919,0.002955318
0.6395,0.693207425,0.621716008,0.00295901
0.63975,0.693207425,0.621716008,0.00295901
0.64,0.696858406,0.629050187,0.00295901
0.64025,0.696858406,0.629050187,0.002962702
0.6405,0.696858406,0.632717276,0.002966393
0.64075,0.693207425,0.632717276,0.002966393
0.641,0.693207425,0.632717276,0.002970085
0.64125,0.693207425,0.636384365,0.002973777
0.6415,0.693207425,0.640051455,0.002973777
0.64175,0.696858406,0.643718544,0.002973777
0.642,0.693207425,0.643718544,0.002977468
0.64225,0.696858406,0.647385633,0.00298116
0.6425,0.696858406,0.651052723,0.002984851
0.64275,0.696858406,0.651052723,0.002984851
0.643,0.696858406,0.654719812,0.002988543
0.64325,0.696858406,0.658386901,0.002992235
0.6435,0.696858406,0.658386901,0.002995926
0.64375,0.696858406,0.662053991,0.002995926
0.644,0.696858406,0.66572108,0.002999618
0.64425,0.696858406,0.66572108,0.00300331
0.6445,0.696858406,0.669388169,0.003007001
0.64475,0.696858406,0.673055259,0.003007001
0.645,0.696858406,0.673055259,0.003010693
0.64525,0.696858406,0.676722348,0.003010693
0.6455,0.696858406,0.676722348,0.003014385
0.64575,0.696858406,0.684056527,0.003018076
0.646,0.696858406,0.684056527,0.003018076
0.64625,0.696858406,0.684056527,0.003021768
0.6465,0.696858406,0.687723616,0.00302546
0.64675,0.696858406,0.687723616,0.003029151
0.647,0.696858406,0.691390705,0.003029151
0.64725,0.696858406,0.695057794,0.003032843
0.6475,0.696858406,0.695057794,0.003036535
0.64775,0.696858406,0.698724884,0.003036535
0.648,0.700509388,0.702391973,0.003040226
0.64825,0.696858406,0.702391973,0.003040226
0.6485,0.696858406,0.706059062,0.003043918
0.64875,0.696858406,0.709726152,0.00304761
0.649,0.696858406,0.709726152,0.003051301
0.64925,0.696858406,0.713393241,0.003054993
0.6495,0.696858406,0.71706033,0.003054993
0.64975,0.700509388,0.71706033,0.003058685
0.65,0.700509388,0.72072742,0.003062376
0.65025,0.700509388,0.724394509,0.003062376
0.6505,0.700509388,0.724394509,0.003066068
0.65075,0.700509388,0.728061598,0.00306976
0.651,0.700509388,0.731728688,0.00306976
0.65125,0.700509388,0.731728688,0.003073451
0.6515,0.700509388,0.735395777,0.003077143
0.65175,0.700509388,0.739062866,0.003077143
0.652,0.700509388,0.739062866,0.003080835
0.65225,0.700509388,0.742729956,0.003084526
0.6525,0.700509388,0.746397045,0.003088218
0.65275,0.700509388,0.746397045,0.003088218
0.653,0.700509388,0.750064134,0.00309191
0.65325,0.700509388,0.753731224,0.00309191
0.6535,0.700509388,0.753731224,0.003095601
0.65375,0.700509388,0.757398313,0.003099293
0.654,0.700509388,0.761065402,0.003099293
0.65425,0.700509388,0.761065402,0.003102985
0.6545,0.700509388,0.764732492,0.003106676
0.65475,0.700509388,0.768399581,0.003110368
0.655,0.700509388,0.77206667,0.003110368
0.65525,0.700509388,0.77206667,0.00311406
0.6555,0.700509388,0.77573376,0.003117751
0.65575,0.700509388,0.779400849,0.003117751
0.656,0.700509388,0.779400849,0.003121443
0.65625,0.700509388,0.783067938,0.003121443
0.6565,0.700509388,0.786735028,0.003125135
0.65675,0.700509388,0.790402117,0.003128826
0.657,0.700509388,0.790402117,0.003132518
0.65725,0.700509388,0.794069206,0.003132518
0.6575,0.700509388,0.794069206,0.00313621
0.65775,0.700509388,0.797736296,0.003139901
0.658,0.700509388,0.801403385,0.003139901
0.65825,0.700509388,0.805070474,0.003143593
0.6585,0.700509388,0.805070474,0.003147284
0.65875,0.700509388,0.808737564,0.003150976
0.659,0.700509388,0.812404653,0.003154668
0.65925,0.704160369,0.812404653,0.003154668
0.6595,0.704160369,0.816071742,0.003158359
0.65975,0.704160369,0.819738832,0.003162051
0.66,0.704160369,0.819738832,0.003162051
0.66025,0.704160369,0.823405921,0.003165743
0.6605,0.704160369,0.823405921,0.003165743
0.66075,0.704160369,0.82707301,0.003173126
0.661,0.704160369,0.8307401,0.003173126
0.66125,0.700509388,0.8307401,0.003176818
0.6615,0.704160369,0.834407189,0.003180509
0.66175,0.704160369,0.834407189,0.003180509
0.662,0.704160369,0.838074278,0.003184201
0.66225,0.704160369,0.841741367,0.003184201
0.6625,0.704160369,0.841741367,0.003187893
0.66275,0.700509388,0.845408457,0.003191584
0.663,0.704160369,0.849075546,0.003191584
0.66325,0.700509388,0.849075546,0.003195276
0.6635,0.700509388,0.849075546,0.003195276
0.66375,0.700509388,0.852742635,0.003198968
0.664,0.704160369,0.856409725,0.003202659
0.66425,0.704160369,0.860076814,0.003202659
0.6645,0.704160369,0.860076814,0.003206351
0.66475,0.704160369,0.863743903,0.003210043
0.665,0.704160369,0.867410993,0.003213734
0.66525,0.704160369,0.867410993,0.003213734
0.6655,0.704160369,0.871078082,0.003217426
0.66575,0.704160369,0.871078082,0.003217426
0.666,0.704160369,0.874745171,0.003221118
0.66625,0.704160369,0.878412261,0.003224809
0.6665,0.704160369,0.88207935,0.003224809
0.66675,0.704160369,0.88207935,0.003228501
0.667,0.704160369,0.885746439,0.003232193
0.66725,0.704160369,0.889413529,0.003232193
0.6675,0.704160369,0.893080618,0.003235884
0.66775,0.704160369,0.893080618,0.003239576
0.668,0.704160369,0.893080618,0.003243268
0.66825,0.704160369,0.896747707,0.003243268
0.6685,0.704160369,0.900414797,0.003246959
0.66875,0.707811351,0.904081886,0.003250651
0.669,0.704160369,0.904081886,0.003250651
0.66925,0.704160369,0.907748975,0.003254343
0.6695,0.704160369,0.911416065,0.003258034
0.66975,0.707811351,0.915083154,0.003258034
0.67,0.707811351,0.915083154,0.003261726
0.67025,0.707811351,0.918750243,0.003265418
0.6705,0.707811351,0.918750243,0.003269109
0.67075,0.704160369,0.922417333,0.003269109
0.671,0.707811351,0.926084422,0.003269109
0.67125,0.707811351,0.929751511,0.003272801
0.6715,0.707811351,0.929751511,0.003276493
0.67175,0.707811351,0.933418601,0.003280184
0.672,0.707811351,0.93708569,0.003283876
0.67225,0.707811351,0.940752779,0.003283876
0.6725,0.707811351,0.940752779,0.003287568
0.67275,0.707811351,0.940752779,0.003291259
0.673,0.707811351,0.944419869,0.003291259
0.67325,0.704160369,0.948086958,0.003294951
0.6735,0.707811351,0.951754047,0.003298642
0.67375,0.707811351,0.951754047,0.003298642
0.674,0.707811351,0.955421137,0.003302334
0.67425,0.707811351,0.959088226,0.003306026
0.6745,0.707811351,0.959088226,0.003309717
0.67475,0.707811351,0.962755315,0.003309717
0.675,0.707811351,0.966422405,0.003313409
0.67525,0.707811351,0.970089494,0.003317101
0.6755,0.707811351,0.970089494,0.003317101
0.67575,0.707811351,0.973756583,0.003320792
0.676,0.707811351,0.973756583,0.003324484
0.67625,0.707811351,0.977423672,0.003324484
0.6765,0.707811351,0.981090762,0.003328176
0.67675,0.707811351,0.984757851,0.003331867
0.677,0.707811351,0.984757851,0.003331867
0.67725,0.707811351,0.984757851,0.003335559
0.6775,0.707811351,0.98842494,0.003339251
0.67775,0.707811351,0.99209203,0.003339251
0.678,0.707811351,0.99209203,0.003342942
0.67825,0.707811351,0.995759119,0.003346634
0.6785,0.707811351,0.999426208,0.003346634
0.67875,0.707811351,1.003093298,0.003350326
0.679,0.707811351,1.003093298,0.003350326
0.67925,0.707811351,1.006760387,0.003357709
0.6795,0.707811351,1.006760387,0.003357709
0.67975,0.707811351,1.010427476,0.003361401
0.68,0.707811351,1.014094566,0.003361401
0.68025,0.707811351,1.017761655,0.003365092
0.6805,0.707811351,1.021428744,0.003368784
0.68075,0.707811351,1.021428744,0.003368784
0.681,0.707811351,1.025095834,0.003372476
0.68125,0.707811351,1.025095834,0.003376167
0.6815,0.711462333,1.028762923,0.003376167
0.68175,0.711462333,1.028762923,0.003379859
0.682,0.711462333,1.032430012,0.003383551
0.68225,0.707811351,1.036097102,0.003383551
0.6825,0.707811351,1.039764191,0.003387242
0.68275,0.707811351,1.039764191,0.003390934
0.683,0.707811351,1.04343128,0.003394626
0.68325,0.711462333,1.04709837,0.003394626
0.6835,0.711462333,1.04709837,0.003398317
0.68375,0.711462333,1.050765459,0.003402009
0.684,0.711462333,1.054432548,0.003402009
0.68425,0.711462333,1.054432548,0.003405701
0.6845,0.707811351,1.058099638,0.003409392
0.68475,0.707811351,1.061766727,0.003409392
0.685,0.711462333,1.065433816,0.003413084
0.68525,0.707811351,1.065433816,0.003416776
0.6855,0.707811351,1.069100906,0.003416776
0.68575,0.711462333,1.069100906,0.003420467
0.686,0.711462333,1.072767995,0.003424159
0.68625,0.711462333,1.072767995,0.003424159
0.6865,0.711462333,1.076435084,0.003427851
0.68675,0.711462333,1.080102174,0.003431542
0.687,0.711462333,1.080102174,0.003431542
0.68725,0.707811351,1.083769263,0.003435234
0.6875,0.711462333,1.083769263,0.003435234
0.68775,0.711462333,1.087436352,0.003438926
0.688,0.711462333,1.091103442,0.003442617
0.68825,0.711462333,1.091103442,0.003442617
0.6885,0.711462333,1.094770531,0.003446309
0.68875,0.711462333,1.09843762,0.003450001
0.689,0.711462333,1.09843762,0.003450001
0.68925,0.711462333,1.10210471,0.003453692
0.6895,0.711462333,1.105771799,0.003453692
0.68975,0.711462333,1.105771799,0.003457384
0.69,0.711462333,1.109438888,0.003461075
0.69025,0.711462333,1.109438888,0.003461075
0.6905,0.711462333,1.113105978,0.003464767
0.69075,0.711462333,1.116773067,0.003468459
0.691,0.711462333,1.120440156,0.003468459
0.69125,0.711462333,1.120440156,0.00347215
0.6915,0.711462333,1.124107245,0.003475842
0.69175,0.711462333,1.127774335,0.003475842
0.692,0.711462333,1.127774335,0.003483225
0.69225,0.711462333,1.131441424,0.003483225
0.6925,0.711462333,1.135108513,0.003486917
0.69275,0.711462333,1.135108513,0.003486917
0.693,0.711462333,1.138775603,0.003490609
0.69325,0.711462333,1.142442692,0.0034943
0.6935,0.711462333,1.146109781,0.0034943
0.69375,0.711462333,1.146109781,0.003497992
0.694,0.711462333,1.149776871,0.003501684
0.69425,0.711462333,1.15344396,0.003501684
0.6945,0.711462333,1.15344396,0.003505375
0.69475,0.711462333,1.157111049,0.003509067
0.695,0.711462333,1.157111049,0.003512759
0.69525,0.711462333,1.160778139,0.003512759
0.6955,0.711462333,1.164445228,0.00351645
0.69575,0.711462333,1.164445228,0.003520142
0.696,0.711462333,1.168112317,0.003520142
0.69625,0.711462333,1.171779407,0.003523834
0.6965,0.711462333,1.175446496,0.003527525
0.69675,0.711462333,1.179113585,0.003527525
0.697,0.711462333,1.179113585,0.003531217
0.69725,0.711462333,1.182780675,0.003534909
0.6975,0.711462333,1.182780675,0.003534909
0.69775,0.715113314,1.186447764,0.003534909
0.698,0.711462333,1.186447764,0.0035386
0.69825,0.715113314,1.193781943,0.003542292
0.6985,0.715113314,1.193781943,0.003542292
0.69875,0.711462333,1.197449032,0.003545984
0.699,0.711462333,1.201116121,0.003549675
0.69925,0.711462333,1.201116121,0.003549675
0.6995,0.711462333,1.201116121,0.003553367
0.69975,0.711462333,1.204783211,0.003557059
0.7,0.711462333,1.2084503,0.00356075
0.70025,0.711462333,1.2084503,0.003564442
0.7005,0.711462333,1.212117389,0.003564442
0.70075,0.715113314,1.215784479,0.003568134
0.701,0.715113314,1.219451568,0.003568134
0.70125,0.715113314,1.223118657,0.003571825
0.7015,0.715113314,1.223118657,0.003575517
0.70175,0.715113314,1.226785747,0.003575517
0.702,0.715113314,1.226785747,0.003579209
0.70225,0.715113314,1.230452836,0.0035829
0.7025,0.715113314,1.234119925,0.003586592
0.70275,0.715113314,1.237787015,0.003586592
0.703,0.715113314,1.237787015,0.003590284
0.70325,0.711462333,1.241454104,0.003593975
0.7035,0.711462333,1.241454104,0.003593975
0.70375,0.715113314,1.245121193,0.003597667
0.704,0.715113314,1.245121193,0.003601359
0.70425,0.715113314,1.248788283,0.00360505
0.7045,0.715113314,1.248788283,0.00360505
0.70475,0.711462333,1.252455372,0.003608742
0.705,0.715113314,1.256122461,0.003608742
0.70525,0.715113314,1.256122461,0.003612433
0.7055,0.715113314,1.25978955,0.003616125
0.70575,0.715113314,1.26345664,0.003619817
0.706,0.715113314,1.267123729,0.003619817
0.70625,0.715113314,1.267123729,0.003623508
0.7065,0.715113314,1.270790818,0.0036272
0.70675,0.715113314,1.274457908,0.003630892
0.707,0.715113314,1.274457908,0.003634583
0.70725,0.715113314,1.278124997,0.003634583
0.7075,0.715113314,1.281792086,0.003638275
0.70775,0.715113314,1.281792086,0.003638275
0.708,0.715113314,1.285459176,0.003641967
0.70825,0.715113314,1.289126265,0.003645658
0.7085,0.715113314,1.289126265,0.00364935
0.70875,0.715113314,1.292793354,0.00364935
0.709,0.715113314,1.292793354,0.003653042
0.70925,0.715113314,1.296460444,0.003656733
0.7095,0.715113314,1.300127533,0.003656733
0.70975,0.715113314,1.303794622,0.003660425
0.71,0.715113314,1.303794622,0.003664117
0.71025,0.715113314,1.303794622,0.003664117
0.7105,0.715113314,1.311128801,0.003667808
0.71075,0.715113314,1.311128801,0.003667808
0.711,0.715113314,1.311128801,0.0036715
0.71125,0.715113314,1.31479589,0.003675192
0.7115,0.715113314,1.31846298,0.003675192
0.71175,0.715113314,1.31846298,0.003678883
0.712,0.715113314,1.322130069,0.003678883
0.71225,0.715113314,1.322130069,0.003682575
0.7125,0.715113314,1.325797158,0.003686267
0.71275,0.715113314,1.329464248,0.003686267
0.713,0.715113314,1.333131337,0.003689958
0.71325,0.715113314,1.333131337,0.00369365
0.7135,0.715113314,1.336798426,0.00369365
0.71375,0.715113314,1.340465516,0.003697342
0.714,0.715113314,1.340465516,0.003701033
0.71425,0.715113314,1.344132605,0.003701033
0.7145,0.715113314,1.347799694,0.003704725
0.71475,0.715113314,1.347799694,0.003708417
0.715,0.715113314,1.351466784,0.003712108
0.71525,0.715113314,1.355133873,0.003712108
0.7155,0.715113314,1.355133873,0.0037158
0.71575,0.715113314,1.358800962,0.003719492
0.716,0.715113314,1.362468052,0.003723183
0.71625,0.715113314,1.362468052,0.003723183
0.7165,0.715113314,1.366135141,0.003726875
0.71675,0.715113314,1.36980223,0.003726875
0.717,0.715113314,1.37346932,0.003730567
0.71725,0.718764296,1.37346932,0.003734258
0.7175,0.718764296,1.37346932,0.003734258
0.71775,0.718764296,1.377136409,0.00373795
0.718,0.718764296,1.380803498,0.003741642
0.71825,0.718764296,1.384470588,0.003745333
0.7185,0.718764296,1.384470588,0.003745333
0.71875,0.718764296,1.388137677,0.003749025
0.719,0.718764296,1.391804766,0.003752717
0.71925,0.718764296,1.395471856,0.003752717
0.7195,0.718764296,1.395471856,0.003756408
0.71975,0.715113314,1.399138945,0.0037601
0.72,0.718764296,1.402806034,0.0037601
0.72025,0.718764296,1.402806034,0.003763792
0.7205,0.718764296,1.406473123,0.003763792
0.72075,0.718764296,1.410140213,0.003767483
0.721,0.718764296,1.410140213,0.003771175
0.72125,0.718764296,1.413807302,0.003774866
0.7215,0.718764296,1.417474391,0.003774866
0.72175,0.718764296,1.421141481,0.003778558
0.722,0.718764296,1.421141481,0.00378225
0.72225,0.718764296,1.42480857,0.00378225
0.7225,0.718764296,1.42480857,0.003785941
0.72275,0.718764296,1.428475659,0.003789633
0.723,0.718764296,1.432142749,0.003789633
0.72325,0.718764296,1.432142749,0.003793325
0.7235,0.718764296,1.435809838,0.003793325
0.72375,0.718764296,1.439476927,0.003797016
0.724,0.718764296,1.443144017,0.003800708
0.72425,0.718764296,1.443144017,0.0038044
0.7245,0.718764296,1.446811106,0.0038044
0.72475,0.718764296,1.446811106,0.003808091
0.725,0.718764296,1.454145285,0.003811783
0.72525,0.718764296,1.454145285,0.003811783
0.7255,0.718764296,1.457812374,0.003815475
0.72575,0.718764296,1.461479463,0.003815475
0.726,0.718764296,1.461479463,0.003819166
0.72625,0.718764296,1.465146553,0.003822858
0.7265,0.718764296,1.465146553,0.00382655
0.72675,0.718764296,1.468813642,0.00382655
0.727,0.718764296,1.472480731,0.003830241
0.72725,0.718764296,1.472480731,0.003833933
0.7275,0.718764296,1.476147821,0.003837625
0.72775,0.718764296,1.476147821,0.003837625
0.728,0.718764296,1.47981491,0.003841316
0.72825,0.718764296,1.483481999,0.003841316
0.7285,0.718764296,1.487149089,0.003845008
0.72875,0.718764296,1.487149089,0.0038487
0.729,0.718764296,1.490816178,0.003852391
0.72925,0.718764296,1.494483267,0.003852391
0.7295,0.718764296,1.494483267,0.003856083
0.72975,0.718764296,1.498150357,0.003859775
0.73,0.718764296,1.501817446,0.003859775
0.73025,0.718764296,1.505484535,0.003863466
0.7305,0.718764296,1.505484535,0.003867158
0.73075,0.718764296,1.509151625,0.003867158
0.731,0.718764296,1.512818714,0.00387085
0.73125,0.718764296,1.512818714,0.003874541
0.7315,0.718764296,1.516485803,0.003874541
0.73175,0.718764296,1.516485803,0.003878233
0.732,0.718764296,1.520152893,0.003881925
0.73225,0.718764296,1.523819982,0.003881925
0.7325,0.718764296,1.523819982,0.003885616
0.73275,0.718764296,1.527487071,0.003889308
0.733,0.718764296,1.531154161,0.003893
0.73325,0.718764296,1.531154161,0.003893
0.7335,0.718764296,1.53482125,0.003896691
0.73375,0.718764296,1.53482125,0.003900383
0.734,0.718764296,1.538488339,0.003900383
0.73425,0.718764296,1.542155428,0.003900383
0.7345,0.718764296,1.542155428,0.003904075
0.73475,0.718764296,1.545822518,0.003907766
0.735,0.718764296,1.549489607,0.003911458
0.73525,0.718764296,1.549489607,0.003911458
0.7355,0.718764296,1.553156696,0.00391515
0.73575,0.718764296,1.553156696,0.00391515
0.736,0.718764296,1.556823786,0.003918841
0.73625,0.718764296,1.560490875,0.003918841
0.7365,0.718764296,1.560490875,0.003922533
0.73675,0.718764296,1.564157964,0.003926224
0.737,0.718764296,1.567825054,0.003926224
0.73725,0.718764296,1.567825054,0.003929916
0.7375,0.718764296,1.571492143,0.003933608
0.73775,0.718764296,1.575159232,0.003937299
0.738,0.718764296,1.575159232,0.003940991
0.73825,0.718764296,1.578826322,0.003940991
0.7385,0.722415277,1.582493411,0.003944683
0.73875,0.722415277,1.5861605,0.003944683
0.739,0.722415277,1.5861605,0.003948374
0.73925,0.722415277,1.58982759,0.003952066
0.7395,0.722415277,1.593494679,0.003952066
0.73975,0.722415277,1.593494679,0.003955758
0.74,0.722415277,1.597161768,0.003955758
0.74025,0.722415277,1.597161768,0.003959449
0.7405,0.722415277,1.600828858,0.003963141
0.74075,0.722415277,1.604495947,0.003966833
0.741,0.722415277,1.608163036,0.003966833
0.74125,0.722415277,1.608163036,0.003970524
0.7415,0.722415277,1.611830126,0.003974216
0.74175,0.722415277,1.615497215,0.003974216
0.742,0.722415277,1.615497215,0.003977908
0.74225,0.722415277,1.619164304,0.003981599
0.7425,0.722415277,1.622831394,0.003985291
0.74275,0.722415277,1.622831394,0.003985291
0.743,0.722415277,1.626498483,0.003988983
0.74325,0.722415277,1.630165572,0.003988983
0.7435,0.722415277,1.630165572,0.003992674
0.74375,0.722415277,1.633832662,0.003996366
0.744,0.722415277,1.637499751,0.004000058
0.74425,0.722415277,1.64116684,0.004000058
0.7445,0.722415277,1.64116684,0.004003749
0.74475,0.722415277,1.64483393,0.004003749
0.745,0.722415277,1.64483393,0.004007441
0.74525,0.722415277,1.648501019,0.004011133
0.7455,0.722415277,1.652168108,0.004014824
0.74575,0.722415277,1.652168108,0.004014824
0.746,0.722415277,1.655835198,0.004018516
0.74625,0.722415277,1.659502287,0.004022208
0.7465,0.722415277,1.663169376,0.004022208
0.74675,0.722415277,1.666836466,0.004025899
0.747,0.722415277,1.666836466,0.004029591
0.74725,0.722415277,1.666836466,0.004033283
0.7475,0.722415277,1.670503555,0.004033283
0.74775,0.722415277,1.674170644,0.004036974
0.748,0.722415277,1.677837734,0.004036974
0.74825,0.722415277,1.681504823,0.004040666
0.7485,0.722415277,1.681504823,0.004044358
0.74875,0.722415277,1.685171912,0.004044358
0.749,0.722415277,1.688839001,0.004048049
0.74925,0.722415277,1.688839001,0.004051741
0.7495,0.722415277,1.692506091,0.004055433
0.74975,0.722415277,1.69617318,0.004055433
0.75,0.726066259,1.69617318,0.004059124
0.75025,0.722415277,1.699840269,0.004062816
0.7505,0.722415277,1.703507359,0.004062816
0.75075,0.722415277,1.703507359,0.004066508
0.751,0.726066259,1.707174448,0.004066508
0.75125,0.722415277,1.707174448,0.004070199
0.7515,0.726066259,1.710841537,0.004073891
0.75175,0.722415277,1.714508627,0.004077583
0.752,0.722415277,1.718175716,0.004077583
0.75225,0.722415277,1.718175716,0.004081274
0.7525,0.722415277,1.721842805,0.004081274
0.75275,0.722415277,1.725509895,0.004084966
0.753,0.722415277,1.725509895,0.004088657
0.75325,0.722415277,1.729176984,0.004092349
0.7535,0.726066259,1.732844073,0.004096041
0.75375,0.722415277,1.732844073,0.004096041
0.754,0.722415277,1.736511163,0.004099732
0.75425,0.722415277,1.740178252,0.004103424
0.7545,0.726066259,1.743845341,0.004103424
0.75475,0.726066259,1.743845341,0.004107116
0.755,0.726066259,1.747512431,0.004107116
0.75525,0.726066259,1.75117952,0.004110807
0.7555,0.726066259,1.75117952,0.004110807
0.75575,0.726066259,1.754846609,0.004118191
0.756,0.726066259,1.758513699,0.004118191
0.75625,0.726066259,1.758513699,0.004121882
0.7565,0.726066259,1.762180788,0.004125574
0.75675,0.726066259,1.765847877,0.004125574
0.757,0.726066259,1.765847877,0.004129266
0.75725,0.726066259,1.769514967,0.004129266
0.7575,0.726066259,1.773182056,0.004132957
0.75775,0.726066259,1.773182056,0.004132957
0.758,0.726066259,1.776849145,0.004136649
0.75825,0.726066259,1.776849145,0.004140341
0.7585,0.726066259,1.776849145,0.004144032
0.75875,0.722415277,1.780516235,0.004144032
0.759,0.726066259,1.784183324,0.004147724
0.75925,0.726066259,1.787850413,0.004147724
0.7595,0.726066259,1.787850413,0.004151416
0.75975,0.726066259,1.791517503,0.004155107
0.76,0.726066259,1.795184592,0.004155107
0.76025,0.726066259,1.798851681,0.004158799
0.7605,0.726066259,1.798851681,0.004162491
0.76075,0.726066259,1.802518771,0.004162491
0.761,0.726066259,1.802518771,0.004166182
0.76125,0.726066259,1.80618586,0.004169874
0.7615,0.726066259,1.80618586,0.004169874
0.76175,0.726066259,1.809852949,0.004173566
0.762,0.726066259,1.813520039,0.004177257
0.76225,0.726066259,1.813520039,0.004177257
0.7625,0.726066259,1.817187128,0.004180949
0.76275,0.726066259,1.817187128,0.004184641
0.763,0.726066259,1.820854217,0.004184641
0.76325,0.726066259,1.824521306,0.004188332
0.7635,0.726066259,1.824521306,0.004192024
0.76375,0.726066259,1.828188396,0.004192024
0.764,0.726066259,1.831855485,0.004195716
0.76425,0.726066259,1.835522574,0.004199407
0.7645,0.726066259,1.835522574,0.004203099
0.76475,0.726066259,1.839189664,0.004203099
0.765,0.726066259,1.842856753,0.004206791
0.76525,0.726066259,1.846523842,0.004210482
0.7655,0.726066259,1.846523842,0.004210482
0.76575,0.726066259,1.850190932,0.004214174
0.766,0.726066259,1.850190932,0.00289256
,,,
,,,
,,,
,,,
,,,
,,,
,,,
,,,
,,,
,,,
,,,
,,,
,,,
,,,
,,,
,,,
,,,
,,,
,,,
,,,
,,,
,,,
,,,
,,,
,,,
,,,
,,,
,,,
,,,
,,,
,,,
,,,
,,,
,,,
,,,
,,,
,,,
,,,
,,,
,,,
,,,
,,,
,,,
,,,
,,,
,,,
,,,
,,,
,,,
,,,
,,,
,,,
,,,
,,,
,,,
,,,
,,,
,,,
,,,
,,,
,,,
,,,
,,,
,,,
,,,
,,,
,,,
,,,
,,,
,,,
,,,
,,,
,,,
,,,
,,,
,,,
,,,
,,,
,,,
,,,
,,,
,,,
,,,
,,,
,,,
,,,
,,,
,,,
,,,
,,,
,,,
,,,
,,,
,,,
,,,
,,,
,,,
,,,
,,,
,,,
,,,
,,,
,,,
,,,
,,,
,,,
,,,
,,,
,,,
,,,
,,,
,,,
,,,
,,,
,,,
,,,
,,,
,,,
,,,
,,,
,,,
,,,
,,,
,,,
,,,
,,,
,,,
,,,
,,,
,,,
,,,
,,,
,,,
,,,
,,,
,,,
,,,
,,,
,,,
,,,
,,,
,,,
,,,
,,,
,,,
,,,
,,,
,,,
,,,
,,,
,,,
,,,
,,,
,,,
,,,
,,,
,,,
,,,
,,,
,,,
,,,
,,,
,,,
,,,
,,,
,,,
,,,
,,,
,,,
,,,
,,,
,,,
,,,
,,,
,,,
,,,
,,,
,,,
,,,
,,,
,,,
,,,
,,,
,,,
,,,
,,,
,,,
,,,
,,,
,,,
,,,
,,,
,,,
,,,
,,,
,,,
,,,
,,,
,,,
,,,
,,,
,,,
,,,
,,,
,,,
,,,
,,,
,,,
,,,
,,,
,,,
,,,
,,,
,,,
,,,
,,,
,,,
,,,
,,,
,,,
,,,
,,,
,,,
,,,
,,,
,,,
,,,
,,,
,,,
,,,
,,,
,,,
,,,
,,,
,,,
,,,
,,,
,,,
,,,
,,,
,,,
,,,
,,,
,,,
,,,
,,,
,,,
,,,
,,,
,,,
,,,
,,,
,,,
,,,
,,,
,,,
,,,
,,,
,,,
,,,
,,,
,,,
,,,
,,,
,,,
,,,
,,,
,,,
,,,
,,,
,,,
,,,
,,,
,,,
,,,
,,,
,,,
,,,
,,,
,,,
,,,
,,,
,,,
,,,
,,,
,,,
,,,
,,,
,,,
,,,
,,,
,,,
,,,
,,,
,,,
,,,
,,,
,,,
,,,
,,,
,,,
,,,
,,,
,,,
,,,
,,,
,,,
,,,
,,,
,,,
,,,
,,,
,,,
,,,
,,,
,,,
,,,
,,,
,,,
,,,
,,,
,,,
,,,
,,,
,,,
,,,
,,,
,,,
,,,
,,,
,,,
,,,
,,,
,,,
,,,
,,,
,,,
,,,
,,,
,,,
,,,
,,,
,,,
,,,
,,,
,,,
,,,
,,,
,,,
,,,
,,,
,,,
,,,
,,,
,,,
,,,
,,,
,,,
,,,
,,,
,,,
,,,
,,,
,,,
,,,
,,,
,,,
,,,
,,,
,,,
,,,
,,,
,,,
,,,
,,,
,,,
,,,
,,,
,,,
,,,
,,,
,,,
,,,
,,,
,,,
,,,
,,,
,,,
,,,
,,,
,,,
,,,
,,,
,,,
,,,
,,,
,,,
,,,
,,,
,,,
,,,
,,,
,,,
,,,
,,,
,,,
,,,
,,,
,,,
,,,
,,,
,,,
,,,
,,,
,,,
,,,
,,,
,,,
,,,
,,,
,,,
,,,
,,,
,,,
,,,
,,,
,,,
,,,
,,,
,,,
,,,
,,,
,,,
,,,
,,,
,,,
,,,
,,,
,,,
,,,
,,,
,,,
,,,
,,,
,,,
,,,
,,,
,,,
,,,
,,,
,,,
,,,
,,,
,,,
,,,
,,,
,,,
,,,
,,,
,,,
,,,
,,,
,,,
,,,
,,,
,,,
,,,
,,,
,,,
,,,
,,,
,,,
,,,
,,,
,,,
,,,
,,,
,,,
,,,
,,,
,,,
,,,
,,,
,,,
,,,
,,,
,,,
,,,
,,,
,,,
,,,
,,,
,,,
,,,
,,,
,,,
,,,
,,,
,,,
,,,
,,,
,,,
,,,
,,,
,,,
,,,
,,,
,,,
,,,
,,,
,,,
,,,
,,,
,,,
,,,
,,,
,,,
,,,
,,,
,,,
,,,
,,,
,,,
,,,
,,,
,,,
,,,
,,,
,,,
,,,
,,,
,,,
,,,
,,,
,,,
,,,
,,,
,,,
,,,
,,,
,,,
,,,
,,,
,,,
,,,
,,,
,,,
,,,
,,,
,,,
,,,
,,,
,,,
,,,
,,,
,,,
,,,
,,,
,,,
,,,
,,,
,,,
,,,
,,,
,,,
,,,
,,,
,,,
,,,
,,,
,,,
,,,
,,,
,,,
,,,
,,,
,,,
,,,
,,,
,,,
,,,
,,,
,,,
,,,
,,,
,,,
,,,
,,,
,,,
,,,
,,,
,,,
,,,
,,,
,,,
,,,
,,,
,,,
,,,
,,,
,,,
,,,
,,,
,,,
,,,
,,,
,,,
,,,
,,,
,,,
,,,
,,,
,,,
,,,
,,,
,,,
,,,
,,,
,,,
,,,
,,,
,,,
,,,
,,,
,,,
,,,
,,,
,,,
,,,
,,,
,,,
,,,
,,,
,,,
,,,
,,,
,,,
,,,
,,,
,,,
,,,
,,,
,,,
,,,
,,,
,,,
,,,
,,,
,,,
,,,
,,,
,,,
,,,
,,,
,,,
,,,
,,,
,,,
,,,
,,,
,,,
,,,
,,,
,,,
,,,
,,,
,,,
,,,
,,,
,,,
,,,
,,,
,,,
,,,
,,,
,,,
,,,
,,,
,,,
,,,
,,,
,,,
,,,
,,,
,,,
,,,
,,,
,,,
,,,
,,,
,,,
,,,
,,,
,,,
,,,
,,,
,,,
,,,
,,,
,,,
,,,
,,,
,,,
,,,
,,,
,,,
,,,
,,,
,,,
,,,
,,,
,,,
,,,
,,,
,,,
,,,
,,,
,,,
,,,
,,,
,,,
,,,
,,,
,,,
,,,
,,,
,,,
,,,
,,,
,,,
,,,
,,,
,,,
,,,
,,,
,,,
,,,
,,,
,,,
,,,
,,,
,,,
,,,
,,,
,,,
,,,
,,,
,,,
,,,
,,,
,,,
,,,
,,,
,,,
,,,
,,,
,,,
,,,
,,,
,,,
,,,
,,,
,,,
,,,
,,,
,,,
,,,
,,,
,,,
,,,
,,,
,,,
,,,
,,,
,,,
,,,
,,,
,,,
,,,
,,,
,,,
,,,
,,,
,,,
,,,
,,,
,,,
,,,
,,,
,,,
,,,
,,,
,,,
,,,
,,,
,,,
,,,
,,,
,,,
,,,
,,,
,,,
,,,
,,,
,,,
,,,
,,,
,,,
,,,
,,,
,,,
,,,
,,,
,,,
,,,
,,,
,,,
,,,
,,,
,,,
,,,
,,,
,,,
,,,
,,,
,,,
,,,
,,,
,,,
,,,
,,,
,,,
,,,
,,,
,,,
,,,
,,,
,,,
,,,
,,,
,,,
,,,
,,,
,,,
,,,
,,,
,,,
,,,
,,,
,,,
,,,
,,,
,,,
,,,
,,,
,,,
,,,
,,,
,,,
,,,
,,,
,,,
,,,
,,,
,,,
,,,
,,,
,,,
,,,
,,,
,,,
,,,
,,,
,,,
,,,
,,,
,,,
,,,
,,,
,,,
,,,
,,,
,,,
,,,
,,,
,,,
,,,
,,,
,,,
,,,
,,,
,,,
,,,
,,,
,,,
,,,
,,,
,,,
,,,
,,,
,,,
,,,
,,,
,,,
,,,
,,,
,,,
,,,
,,,
,,,
,,,
,,,
,,,
,,,
,,,
,,,
,,,
,,,
,,,
,,,
,,,
,,,
,,,
,,,
,,,
,,,
,,,
,,,
,,,
,,,
,,,
,,,
,,,
,,,
,,,
